Time (ka)	Benthic d18O (per mil)	Standard error (per mil)
0.56	3.12	0.2
2.69	3.13	0.2
3.1	3.16	0.2
4.13	3.21	0.2
5.13	3.27	0.2
5.62	3.35	0.2
5.92	3.44	0.2
7.1	3.56	0.2
7.58	3.7	0.2
8.59	3.88	0.2
10.02	4.07	0.2
10.08	4.25	0.2
11.55	4.41	0.2
12.47	4.55	0.2
13.05	4.67	0.2
14.01	4.76	0.2
14.91	4.83	0.2
15.2	4.86	0.2
15.41	4.87	0.2
16.82	4.87	0.2
17.36	4.85	0.2
17.79	4.82	0.2
18.23	4.79	0.2
19.64	4.76	0.2
19.8	4.715	0.2
20.37	4.67	0.2
22.25	4.64	0.2
22.96	4.61	0.2
23.86	4.58	0.2
24.63	4.56	0.2
24.97	4.54	0.2
25.75	4.52	0.2
26.58	4.495	0.2
26.83	4.48	0.2
27.69	4.48	0.2
28.2	4.47	0.2
29.04	4.46	0.2
29.82	4.45	0.2
31.25	4.42	0.2
31.43	4.4	0.2
31.58	4.39	0.2
33.05	4.38	0.2
33.45	4.37	0.2
33.53	4.36	0.2
34.66	4.35	0.2
35.47	4.34	0.2
36.28	4.33	0.2
37.89	4.32	0.2
39.36	4.32	0.2
39.51	4.33	0.2
40.07	4.34	0.2
41.12	4.35	0.2
41.31	4.34	0.2
42.28	4.33	0.2
42.74	4.31	0.2
43.25	4.265	0.2
44.35	4.23	0.2
44.49	4.21	0.2
45.18	4.21	0.2
46.04	4.23	0.2
46.63	4.25	0.2
46.76	4.27	0.2
47.77	4.28	0.2
48.43	4.28	0.2
49.05	4.29	0.2
49.51	4.3	0.2
50.24	4.3	0.2
51.24	4.29	0.2
51.34	4.28	0.2
52.04	4.26	0.2
52.97	4.24	0.2
53.63	4.22	0.2
53.85	4.21	0.2
54.71	4.21	0.2
55.11	4.23	0.2
55.92	4.25	0.2
56.44	4.27	0.2
57.46	4.3	0.2
58.17	4.32	0.2
58.21	4.34	0.2
59.26	4.38	0.2
59.91	4.42	0.2
60.5	4.45	0.2
61.07	4.47	0.2
61.64	4.47	0.2
62.79	4.47	0.2
62.88	4.47	0.2
63.37	4.47	0.2
64.68	4.46	0.2
65.08	4.45	0.2
66.49	4.42	0.2
67.37	4.36	0.2
69.09	4.28	0.2
69.43	4.23	0.2
70.1	4.18	0.2
70.83	4.13	0.2
72.53	4.095	0.2
72.68	4.07	0.2
73.41	4.035	0.2
75.6	3.98	0.2
76.09	3.94	0.2
76.74	3.89	0.2
78.67	3.85	0.2
78.76	3.82	0.2
80.79	3.785	0.2
81.44	3.76	0.2
81.73	3.75	0.2
84.11	3.74	0.2
84.8	3.745	0.2
84.84	3.77	0.2
86.79	3.82	0.2
87.87	3.87	0.2
88.89	3.95	0.2
90.93	4	0.2
94	4.005	0.2
95.58	3.98	0.2
95.86	3.97	0.2
96.12	3.94	0.2
98.05	3.91	0.2
98.24	3.87	0.2
100.53	3.83	0.2
102.47	3.8	0.2
103	3.75	0.2
103.39	3.7	0.2
105.52	3.69	0.2
105.99	3.695	0.2
108.23	3.71	0.2
108.74	3.74	0.2
109.2	3.76	0.2
110.94	3.8	0.2
111.49	3.86	0.2
111.52	3.92	0.2
113.65	3.96	0.2
113.84	3.98	0.2
116.06	3.99	0.2
116.19	3.97	0.2
116.96	3.95	0.2
118.19	3.92	0.2
120.32	3.88	0.2
120.39	3.83	0.2
120.96	3.78	0.2
122.45	3.675	0.2
123.35	3.56	0.2
123.52	3.425	0.2
124.57	3.29	0.2
125.73	3.23	0.2
126.65	3.18	0.2
126.7	3.14	0.2
127.74	3.12	0.2
127.84	3.11	0.2
128.82	3.135	0.2
129.47	3.19	0.2
129.64	3.25	0.2
130.75	3.415	0.2
131.44	3.67	0.2
132.67	3.9	0.2
132.94	4.13	0.2
133.24	4.35	0.2
134.55	4.52	0.2
134.67	4.64	0.2
135.04	4.72	0.2
136.37	4.75	0.2
138.19	4.76	0.2
140.09	4.75	0.2
141.72	4.73	0.2
142.06	4.7	0.2
142.89	4.66	0.2
144.03	4.62	0.2
146.01	4.535	0.2
146.82	4.45	0.2
147.15	4.41	0.2
147.98	4.39	0.2
148.43	4.41	0.2
148.96	4.45	0.2
149.75	4.48	0.2
150.77	4.5	0.2
152.93	4.51	0.2
153.89	4.52	0.2
154.7	4.52	0.2
155.87	4.5	0.2
156.2	4.48	0.2
156.31	4.45	0.2
157.84	4.42	0.2
158.02	4.4	0.2
159.81	4.38	0.2
160.21	4.37	0.2
161.78	4.355	0.2
162.49	4.33	0.2
164.91	4.31	0.2
167.08	4.29	0.2
167.34	4.27	0.2
168.9	4.25	0.2
169.76	4.25	0.2
170.71	4.26	0.2
172.19	4.27	0.2
174.35	4.29	0.2
174.61	4.3	0.2
176.16	4.3	0.2
177.04	4.31	0.2
179.46	4.32	0.2
179.79	4.33	0.2
181.89	4.32	0.2
185.24	4.27	0.2
186.74	4.2	0.2
188.87	4.11	0.2
190.68	3.965	0.2
190.92	3.86	0.2
191.59	3.775	0.2
193.63	3.71	0.2
194.02	3.66	0.2
196.2	3.605	0.2
196.42	3.56	0.2
198.68	3.513333333	0.2
198.88	3.48	0.2
201.17	3.44	0.2
201.61	3.41	0.2
201.81	3.42	0.2
203.66	3.44	0.2
204.75	3.46	0.2
207.71	3.49	0.2
208.38	3.5	0.2
210.9	3.49	0.2
214.86	3.47	0.2
217.3	3.43	0.2
217.85	3.42	0.2
218.33	3.41	0.2
220.41	3.41	0.2
220.64	3.44	0.2
220.69	3.49	0.2
223.08	3.57	0.2
223.18	3.68	0.2
225.67	3.82	0.2
225.74	4.066666667	0.2
228.16	4.19	0.2
228.9	4.16	0.2
231.08	4.12	0.2
233.38	4.09	0.2
234.2	4.05	0.2
235.79	4.01	0.2
237.35	3.95	0.2
238.23	3.88	0.2
238.91	3.81	0.2
240.83	3.73	0.2
241.3	3.61	0.2
243.11	3.465	0.2
243.46	3.44	0.2
243.86	3.49	0.2
245.02	3.59	0.2
246.14	3.805	0.2
246.59	4.03	0.2
248.43	4.16	0.2
250.71	4.26	0.2
251.94	4.35	0.2
252.71	4.41	0.2
254.16	4.44	0.2
255.77	4.46	0.2
256.4	4.46	0.2
256.86	4.45	0.2
257.72	4.44	0.2
257.76	4.42	0.2
258.64	4.39	0.2
259.28	4.35	0.2
260.1	4.315	0.2
260.88	4.3	0.2
261.7	4.3	0.2
261.73	4.31	0.2
262.24	4.32	0.2
263.12	4.33	0.2
263.71	4.34	0.2
264.12	4.35	0.2
264.86	4.36	0.2
265.36	4.37	0.2
266.54	4.37	0.2
267.24	4.37	0.2
267.6	4.38	0.2
267.68	4.39	0.2
268.86	4.42	0.2
269.59	4.445	0.2
269.67	4.45	0.2
269.84	4.43	0.2
271.01	4.41	0.2
273.16	4.39	0.2
273.59	4.37	0.2
273.64	4.36	0.2
274.17	4.36	0.2
275.31	4.33	0.2
277.46	4.28	0.2
278.62	4.21	0.2
284.58	4.085	0.2
288.39	3.97	0.2
289.42	3.93	0.2
290.87	3.91	0.2
291.85	3.93	0.2
293.34	3.985	0.2
294.27	4.07	0.2
295.82	4.12	0.2
296.7	4.16	0.2
298.04	4.18	0.2
300.76	4.18	0.2
301.55	4.16	0.2
303.35	4.11	0.2
306.92	4.03	0.2
309.17	3.95	0.2
311.75	3.9	0.2
313.71	3.85	0.2
316.89	3.79	0.2
318.47	3.72	0.2
319.47	3.65	0.2
320.85	3.59	0.2
322.04	3.485	0.2
323.29	3.37	0.2
326.28	3.28	0.2
328.62	3.19	0.2
329.27	3.12	0.2
332.27	3.07	0.2
334.69	3.08	0.2
335.67	3.16	0.2
336.91	3.41	0.2
338.39	3.72	0.2
338.9	3.99	0.2
343.55	4.245	0.2
345.77	4.35	0.2
348.17	4.39	0.2
350.59	4.405	0.2
352.68	4.42	0.2
353.01	4.41	0.2
354.77	4.4	0.2
355.44	4.39	0.2
356.86	4.39	0.2
357.86	4.4	0.2
361.04	4.41	0.2
365.13	4.41	0.2
365.21	4.4	0.2
367.55	4.365	0.2
369.97	4.32	0.2
372.39	4.3	0.2
373.57	4.27	0.2
374.57	4.25	0.2
375.65	4.22	0.2
376.13	4.18	0.2
377.24	4.14	0.2
377.74	4.11	0.2
378.92	4.09	0.2
379.66	4.08	0.2
379.83	4.08	0.2
382.09	4.08	0.2
384.49	4.055	0.2
384.51	4.01	0.2
386.93	3.98	0.2
387.28	3.94	0.2
389.35	3.895	0.2
390.27	3.86	0.2
390.36	3.85	0.2
391.77	3.85	0.2
392.36	3.83	0.2
394.2	3.805	0.2
396.62	3.77	0.2
398.72	3.73	0.2
399.12	3.66	0.2
399.35	3.59	0.2
399.91	3.49	0.2
402.31	3.39	0.2
404.68	3.27	0.2
405.23	3.2	0.2
407.06	3.17	0.2
408.14	3.15	0.2
408.64	3.11	0.2
409.3	3.065	0.2
410.06	3.05	0.2
410.87	3.07	0.2
411.34	3.12	0.2
412.85	3.24	0.2
412.91	3.37	0.2
414.33	3.525	0.2
414.89	3.7	0.2
415.59	3.82	0.2
416.42	3.95	0.2
416.94	4.04	0.2
417.17	4.06	0.2
418.74	4.03	0.2
418.85	3.935	0.2
418.98	3.88	0.2
421.04	3.94	0.2
422.27	4.145	0.2
422.7	4.41	0.2
423.01	4.58	0.2
423.03	4.72	0.2
423.54	4.845	0.2
423.78	4.88	0.2
423.98	4.88	0.2
424.8	4.87	0.2
425.22	4.87	0.2
425.29	4.86	0.2
425.68	4.84	0.2
425.79	4.81	0.2
426.31	4.77	0.2
426.53	4.68	0.2
426.8	4.57	0.2
427.38	4.5	0.2
428.22	4.44	0.2
428.57	4.39	0.2
429.07	4.38	0.2
429.41	4.38	0.2
429.92	4.39	0.2
429.93	4.42	0.2
430.69	4.45	0.2
430.98	4.48	0.2
431.31	4.525	0.2
431.34	4.55	0.2
431.62	4.55	0.2
432.69	4.55	0.2
432.85	4.54	0.2
433.33	4.53	0.2
434.07	4.52	0.2
434.36	4.52	0.2
435.45	4.52	0.2
435.88	4.51	0.2
437.9	4.49	0.2
438.08	4.44	0.2
441.07	4.41	0.2
442.85	4.37	0.2
444.24	4.34	0.2
447.63	4.33	0.2
453.76	4.32	0.2
454.24	4.325	0.2
456.93	4.3	0.2
461.8	4.27	0.2
463.27	4.24	0.2
466.44	4.18	0.2
469.61	4.1	0.2
472.78	4.02	0.2
473.9	3.895	0.2
483.16	3.77	0.2
484.12	3.66	0.2
486.17	3.57	0.2
488.59	3.52	0.2
488.67	3.49	0.2
491.01	3.49	0.2
492.17	3.49	0.2
492.89	3.535	0.2
493.43	3.6	0.2
494.88	3.67	0.2
496.06	3.75	0.2
497.94	3.82	0.2
499.23	3.87	0.2
499.24	3.89	0.2
500.08	3.865	0.2
500.33	3.83	0.2
501.36	3.81	0.2
502.15	3.81	0.2
502.22	3.83	0.2
503.5	3.85	0.2
504.22	3.88	0.2
504.36	3.9	0.2
505.64	3.92	0.2
506.49	3.92	0.2
507.72	3.91	0.2
507.78	3.89	0.2
508.63	3.88	0.2
509.92	3.87	0.2
510.77	3.86	0.2
510.88	3.84	0.2
511.6	3.83	0.2
512.05	3.84	0.2
512.9	3.84	0.2
512.91	3.84	0.2
514.19	3.82	0.2
514.92	3.8	0.2
515.05	3.78	0.2
517.03	3.76	0.2
517.29	3.755	0.2
518.1	3.8	0.2
519.22	3.83	0.2
519.61	3.835	0.2
520.51	3.82	0.2
521.01	3.82	0.2
521.94	3.82	0.2
522.6	3.82	0.2
523.33	3.845	0.2
524.26	3.85	0.2
525.63	3.85	0.2
525.66	3.87	0.2
526.38	3.9	0.2
526.46	3.95	0.2
526.59	4	0.2
527.5	4.03	0.2
527.98	4.04	0.2
528.27	4.05	0.2
528.54	4.06	0.2
528.94	4.08	0.2
529.57	4.11	0.2
530.16	4.15	0.2
530.48	4.195	0.2
530.79	4.26	0.2
531.5	4.31	0.2
532.11	4.35	0.2
532.29	4.4	0.2
533.04	4.46	0.2
533.5	4.48	0.2
534.07	4.48	0.2
534.16	4.47	0.2
534.7	4.46	0.2
535.61	4.44	0.2
535.9	4.4	0.2
536.2	4.335	0.2
536.64	4.275	0.2
537.1	4.3	0.2
538.18	4.35	0.2
538.24	4.38	0.2
538.3	4.4	0.2
539.2	4.4	0.2
539.5	4.4	0.2
540.36	4.4	0.2
540.76	4.4	0.2
541.67	4.38	0.2
542.05	4.36	0.2
542.71	4.33	0.2
543.33	4.3	0.2
543.98	4.27	0.2
544.62	4.23	0.2
545.06	4.19	0.2
545.9	4.15	0.2
547.87	4.11	0.2
549.89	4.075	0.2
550.11	4.05	0.2
551.92	4.03	0.2
551.93	3.99	0.2
553.94	3.94	0.2
555.63	3.89	0.2
557.4	3.86	0.2
560.19	3.84	0.2
561.05	3.83	0.2
562.8	3.83	0.2
563.87	3.815	0.2
566.61	3.78	0.2
567.87	3.73	0.2
568.02	3.66	0.2
568.4	3.59	0.2
570.31	3.53	0.2
571.17	3.46	0.2
571.6	3.41	0.2
572.21	3.38	0.2
574.12	3.36	0.2
574.32	3.34	0.2
575.34	3.32	0.2
576.02	3.3	0.2
577.81	3.275	0.2
577.93	3.29	0.2
579.07	3.33	0.2
579.83	3.4	0.2
581.45	3.48	0.2
581.74	3.595	0.2
582.81	3.69	0.2
582.91	3.77	0.2
583.64	3.85	0.2
585.09	3.93	0.2
585.54	3.99	0.2
586.34	4.04	0.2
586.91	4.08	0.2
587.45	4.1	0.2
588.73	4.11	0.2
588.81	4.11	0.2
589	4.11	0.2
590.46	4.115	0.2
590.47	4.12	0.2
592.03	4.12	0.2
593.1	4.11	0.2
593.21	4.1	0.2
593.59	4.08	0.2
594.83	4.03	0.2
595.14	3.97	0.2
595.32	3.93	0.2
595.74	3.9	0.2
596.1	3.88	0.2
596.76	3.87	0.2
597.44	3.87	0.2
598.08	3.87	0.2
598.38	3.88	0.2
598.41	3.89	0.2
599.4	3.89	0.2
599.7	3.89	0.2
600.06	3.88	0.2
601.1	3.865	0.2
601.38	3.87	0.2
602.4	3.88	0.2
602.71	3.89	0.2
602.93	3.875	0.2
603.37	3.84	0.2
604.69	3.8	0.2
604.76	3.79	0.2
605.24	3.81	0.2
606.01	3.82	0.2
606.59	3.83	0.2
606.67	3.81	0.2
607.99	3.745	0.2
608.41	3.68	0.2
609.31	3.64	0.2
609.98	3.62	0.2
610.24	3.62	0.2
610.93	3.62	0.2
611.3	3.64	0.2
612.07	3.645	0.2
612.62	3.62	0.2
613.28	3.59	0.2
613.78	3.535	0.2
613.9	3.49	0.2
614.6	3.46	0.2
615.72	3.43	0.2
615.92	3.41	0.2
616.58	3.4	0.2
616.62	3.4	0.2
617.55	3.41	0.2
617.91	3.425	0.2
619.23	3.45	0.2
619.38	3.47	0.2
619.47	3.51	0.2
619.84	3.56	0.2
620.95	3.63	0.2
621.26	3.71	0.2
622.32	3.79	0.2
622.38	3.88	0.2
623.01	3.96	0.2
623.46	4.01	0.2
625.42	4.05	0.2
625.62	4.09	0.2
625.77	4.16	0.2
626.46	4.27	0.2
627.77	4.42	0.2
627.83	4.58	0.2
628.45	4.71	0.2
629.21	4.81	0.2
629.9	4.87	0.2
629.92	4.91	0.2
631.28	4.93	0.2
631.48	4.94	0.2
632.08	4.95	0.2
632.66	4.97	0.2
633.22	4.97	0.2
633.98	4.97	0.2
634.03	4.96	0.2
634.11	4.93	0.2
635	4.91	0.2
635.44	4.89	0.2
635.83	4.88	0.2
635.95	4.87	0.2
636.33	4.87	0.2
637.22	4.86	0.2
637.62	4.85	0.2
637.67	4.84	0.2
637.92	4.84	0.2
638.56	4.83	0.2
639.42	4.815	0.2
639.44	4.79	0.2
639.89	4.775	0.2
640.78	4.76	0.2
641.21	4.75	0.2
641.67	4.74	0.2
641.86	4.73	0.2
642.11	4.73	0.2
643	4.72	0.2
643.01	4.72	0.2
643.83	4.72	0.2
643.89	4.71	0.2
644.33	4.7	0.2
644.81	4.69	0.2
645.22	4.68	0.2
645.98	4.67	0.2
646.11	4.65	0.2
646.56	4.64	0.2
646.6	4.63	0.2
647.44	4.62	0.2
648.33	4.61	0.2
648.4	4.59	0.2
648.53	4.565	0.2
648.9	4.55	0.2
650.2	4.56	0.2
650.29	4.56	0.2
651.07	4.57	0.2
651.68	4.58	0.2
651.78	4.57	0.2
652.38	4.56	0.2
653.25	4.55	0.2
653.36	4.53	0.2
654.73	4.53	0.2
655.15	4.52	0.2
655.85	4.51	0.2
656.16	4.5	0.2
656.21	4.49	0.2
657.24	4.48	0.2
657.68	4.47	0.2
658.63	4.45	0.2
658.7	4.44	0.2
659.16	4.44	0.2
659.32	4.45	0.2
660.64	4.46	0.2
660.71	4.47	0.2
661.25	4.46	0.2
662.1	4.44	0.2
662.12	4.415	0.2
662.79	4.41	0.2
663.59	4.41	0.2
663.79	4.42	0.2
664.18	4.41	0.2
665.07	4.4	0.2
665.57	4.39	0.2
666.26	4.38	0.2
666.55	4.39	0.2
668.03	4.41	0.2
669.04	4.43	0.2
669.53	4.44	0.2
669.72	4.415	0.2
669.74	4.38	0.2
671.02	4.36	0.2
672.21	4.35	0.2
672.51	4.35	0.2
672.78	4.36	0.2
673.1	4.37	0.2
673.92	4.37	0.2
674	4.36	0.2
675.49	4.32	0.2
676.48	4.28	0.2
676.99	4.23	0.2
678.48	4.2	0.2
679.97	4.195	0.2
680.79	4.22	0.2
681.36	4.23	0.2
682.51	4.24	0.2
682.95	4.24	0.2
683.24	4.225	0.2
684.22	4.21	0.2
685.37	4.165	0.2
685.94	4.11	0.2
686.22	4.06	0.2
686.62	4	0.2
686.8	3.93	0.2
686.83	3.86	0.2
688.03	3.785	0.2
689.37	3.75	0.2
689.79	3.74	0.2
689.9	3.74	0.2
689.94	3.74	0.2
690.22	3.74	0.2
691.94	3.76	0.2
692.23	3.78	0.2
692.8	3.79	0.2
694.5	3.79	0.2
694.54	3.78	0.2
695.07	3.76	0.2
695.64	3.72	0.2
696.21	3.68	0.2
696.77	3.65	0.2
696.84	3.61	0.2
697.9	3.58	0.2
698.47	3.56	0.2
698.76	3.53	0.2
699.51	3.51	0.2
699.6	3.5	0.2
700.46	3.51	0.2
701.6	3.52	0.2
702.59	3.53	0.2
702.93	3.54	0.2
703.02	3.54	0.2
704.24	3.53	0.2
704.85	3.53	0.2
706.06	3.54	0.2
707.27	3.56	0.2
707.88	3.6	0.2
710.3	3.64	0.2
710.46	3.68	0.2
710.91	3.72	0.2
712.12	3.74	0.2
712.4	3.76	0.2
713.33	3.78	0.2
713.94	3.78	0.2
714.33	3.78	0.2
714.72	3.78	0.2
715.15	3.78	0.2
716.36	3.82	0.2
716.97	3.88	0.2
718.18	3.95	0.2
718.2	4.02	0.2
718.59	4.07	0.2
719.39	4.1	0.2
719.48	4.12	0.2
720	4.14	0.2
720.14	4.17	0.2
721.27	4.21	0.2
722.08	4.24	0.2
722.21	4.26	0.2
722.46	4.26	0.2
722.54	4.27	0.2
724.01	4.27	0.2
724.56	4.29	0.2
725.06	4.31	0.2
725.19	4.33	0.2
725.45	4.33	0.2
726.09	4.32	0.2
726.38	4.3	0.2
727.01	4.27	0.2
727.4	4.25	0.2
727.57	4.23	0.2
727.63	4.2	0.2
727.8	4.16	0.2
728.18	4.14	0.2
728.75	4.1	0.2
728.96	4.07	0.2
729.16	4.05	0.2
729.35	4.03	0.2
729.94	4.02	0.2
730.13	4.02	0.2
730.18	4.03	0.2
730.69	4.04	0.2
730.9	4.04	0.2
731.12	4.03	0.2
731.29	4.01	0.2
732.07	3.97	0.2
732.22	3.925	0.2
732.31	3.89	0.2
732.55	3.89	0.2
732.85	3.9	0.2
733.24	3.92	0.2
733.76	3.93	0.2
734.02	3.93	0.2
734.68	3.92	0.2
734.8	3.9	0.2
734.92	3.9	0.2
735.19	3.91	0.2
735.29	3.92	0.2
735.97	3.94	0.2
736.75	3.96	0.2
736.82	3.96	0.2
737.06	3.97	0.2
737.14	3.97	0.2
737.92	3.97	0.2
738.24	3.98	0.2
738.7	3.99	0.2
739.09	4	0.2
739.43	4.01	0.2
739.67	4.03	0.2
739.87	4.06	0.2
739.88	4.08	0.2
740.62	4.08	0.2
740.65	4.07	0.2
741.04	4.05	0.2
741.42	4.04	0.2
741.82	4.06	0.2
742.6	4.09	0.2
742.96	4.14	0.2
743	4.2	0.2
743.05	4.25	0.2
744.53	4.29	0.2
745.76	4.32	0.2
746.05	4.35	0.2
746.07	4.37	0.2
746.82	4.39	0.2
747.57	4.41	0.2
748.35	4.405	0.2
749.83	4.37	0.2
749.87	4.34	0.2
750.29	4.32	0.2
750.64	4.3	0.2
752.1	4.29	0.2
752.16	4.27	0.2
753.69	4.26	0.2
754.36	4.25	0.2
754.46	4.25	0.2
754.81	4.26	0.2
755.48	4.27	0.2
755.98	4.27	0.2
757.51	4.26	0.2
758.28	4.25	0.2
758.88	4.22	0.2
759.8	4.19	0.2
761.14	4.16	0.2
761.33	4.15	0.2
762.1	4.14	0.2
763.41	4.13	0.2
763.62	4.12	0.2
765.15	4.1	0.2
765.92	4.06	0.2
767.44	4.01	0.2
767.93	3.96	0.2
768.04	3.93	0.2
768.97	3.91	0.2
769.74	3.91	0.2
769.79	3.91	0.2
771.26	3.9	0.2
771.54	3.88	0.2
772.79	3.85	0.2
773.29	3.81	0.2
773.56	3.78	0.2
774.31	3.75	0.2
775.08	3.73	0.2
776.61	3.7	0.2
776.79	3.66	0.2
777.38	3.62	0.2
777.45	3.57	0.2
780.43	3.53	0.2
781.2	3.51	0.2
782.04	3.5	0.2
782.72	3.49	0.2
783.73	3.48	0.2
784.25	3.45	0.2
785.02	3.41	0.2
786.54	3.36	0.2
786.87	3.32	0.2
788.07	3.29	0.2
788.8	3.29	0.2
789.01	3.3	0.2
789.34	3.416666667	0.2
790.28	3.57	0.2
790.69	3.64	0.2
791.75	3.72	0.2
791.89	3.81	0.2
792.48	3.93	0.2
792.52	4.09	0.2
796.58	4.24	0.2
796.98	4.38	0.2
798.49	4.46	0.2
800.12	4.49	0.2
800.44	4.48	0.2
801.74	4.415	0.2
801.82	4.35	0.2
803.44	4.34	0.2
804.21	4.35	0.2
804.99	4.38	0.2
806.59	4.37	0.2
806.62	4.34	0.2
806.94	4.29	0.2
808.24	4.21	0.2
808.98	4.13	0.2
809.53	4.08	0.2
809.87	4.07	0.2
809.96	4.09	0.2
810.19	4.16	0.2
811.37	4.21	0.2
811.49	4.195	0.2
811.7	4.14	0.2
812.14	4.09	0.2
813.12	4.06	0.2
813.44	4.04	0.2
813.75	4.03	0.2
813.88	4.02	0.2
814.31	3.99	0.2
814.74	3.95	0.2
816.05	3.9	0.2
816.48	3.85	0.2
818.22	3.79	0.2
818.66	3.74	0.2
819.65	3.7	0.2
820.98	3.67	0.2
821.24	3.65	0.2
821.65	3.63	0.2
822.87	3.61	0.2
822.99	3.58	0.2
823.19	3.56	0.2
823.3	3.56	0.2
824.33	3.59	0.2
825	3.63	0.2
826.12	3.67	0.2
826.33	3.72	0.2
827.67	3.75	0.2
828.08	3.77	0.2
828.34	3.78	0.2
828.82	3.79	0.2
829.09	3.8	0.2
830.46	3.79	0.2
831.01	3.78	0.2
831.35	3.76	0.2
831.52	3.75	0.2
831.79	3.75	0.2
832.85	3.75	0.2
832.87	3.75	0.2
833.02	3.73	0.2
834.22	3.685	0.2
834.36	3.65	0.2
834.69	3.67	0.2
838.09	3.71	0.2
838.53	3.76	0.2
839.03	3.8	0.2
840.23	3.8	0.2
842.95	3.76	0.2
844.02	3.7	0.2
844.52	3.64	0.2
844.72	3.545	0.2
846.93	3.48	0.2
847.37	3.46	0.2
849.01	3.44	0.2
849.72	3.41	0.2
850.01	3.38	0.2
851.35	3.38	0.2
851.79	3.39	0.2
854	3.43	0.2
854.76	3.47	0.2
855.62	3.52	0.2
856.91	3.54	0.2
857.82	3.53	0.2
858.58	3.5	0.2
858.85	3.46	0.2
861.75	3.42	0.2
862.02	3.4	0.2
862.08	3.39	0.2
863.37	3.42	0.2
863.43	3.47	0.2
864.98	3.53	0.2
865.31	3.61	0.2
865.84	3.72	0.2
866.48	3.85	0.2
866.6	4.02	0.2
868.22	4.18	0.2
868.54	4.32	0.2
869.52	4.42	0.2
869.65	4.47	0.2
870.48	4.5	0.2
871.77	4.52	0.2
872.57	4.53	0.2
873.06	4.54	0.2
874.68	4.54	0.2
875	4.54	0.2
875.69	4.54	0.2
876.98	4.52	0.2
877.2	4.47	0.2
879.12	4.32	0.2
879.46	4.19	0.2
879.95	4.16	0.2
880.85	4.16	0.2
882.55	4.17	0.2
884.51	4.21	0.2
884.91	4.285	0.2
888.13	4.35	0.2
889.41	4.37	0.2
891.65	4.37	0.2
892.84	4.35	0.2
896.27	4.32	0.2
898.91	4.29	0.2
899.28	4.26	0.2
899.77	4.22	0.2
899.94	4.17	0.2
901.76	4.11	0.2
903.12	4.06	0.2
903.76	4.01	0.2
904.24	3.96	0.2
904.73	3.94	0.2
906.72	3.93	0.2
907.33	3.95	0.2
907.57	3.96	0.2
909.2	3.94	0.2
911.39	3.9	0.2
911.54	3.85	0.2
911.68	3.8	0.2
914.16	3.78	0.2
914.66	3.79	0.2
915.21	3.79	0.2
915.33	3.78	0.2
916.17	3.77	0.2
916.33	3.735	0.2
916.37	3.73	0.2
918.57	3.765	0.2
918.94	3.81	0.2
919.64	3.83	0.2
920.42	3.84	0.2
920.63	3.84	0.2
921.61	3.86	0.2
922.41	3.9	0.2
922.47	3.96	0.2
923.1	4.02	0.2
924.52	4.09	0.2
924.9	4.14	0.2
925.87	4.19	0.2
926.44	4.22	0.2
928.58	4.24	0.2
929.12	4.25	0.2
929.77	4.245	0.2
930.19	4.23	0.2
931.26	4.2	0.2
931.42	4.18	0.2
931.79	4.16	0.2
932.03	4.14	0.2
932.86	4.13	0.2
933.07	4.11	0.2
933.93	4.08	0.2
934.39	4.04	0.2
934.47	3.99	0.2
934.71	3.94	0.2
935.54	3.91	0.2
936.36	3.9	0.2
936.61	3.89	0.2
937.15	3.87	0.2
939.18	3.84	0.2
939.39	3.81	0.2
939.77	3.77	0.2
940.47	3.73	0.2
941.67	3.7	0.2
941.86	3.67	0.2
942.23	3.65	0.2
943.26	3.64	0.2
943.65	3.62	0.2
943.96	3.62	0.2
944.16	3.62	0.2
945.07	3.61	0.2
945.35	3.6	0.2
946.49	3.58	0.2
946.65	3.56	0.2
946.74	3.54	0.2
947.44	3.52	0.2
947.91	3.5	0.2
949.14	3.47	0.2
949.34	3.44	0.2
950.23	3.41	0.2
950.76	3.38	0.2
950.93	3.37	0.2
951.63	3.38	0.2
952.18	3.4	0.2
952.32	3.42	0.2
953.6	3.41	0.2
953.72	3.37	0.2
954.12	3.28	0.2
954.41	3.21	0.2
955.02	3.215	0.2
955.81	3.32	0.2
956.44	3.366666667	0.2
956.61	3.24	0.2
957.2	3.15	0.2
957.86	3.09	0.2
957.9	3.07	0.2
959.21	3.08	0.2
959.42	3.14	0.2
959.5	3.19	0.2
961.28	3.23	0.2
961.5	3.28	0.2
962.17	3.36	0.2
963.58	3.44	0.2
963.82	3.51	0.2
965.67	3.58	0.2
965.72	3.66	0.2
966.61	3.76	0.2
967.75	3.87	0.2
968.36	4.025	0.2
969.37	4.12	0.2
970.06	4.14	0.2
970.31	4.13	0.2
970.61	4.11	0.2
970.63	4.1	0.2
971.31	4.11	0.2
971.78	4.11	0.2
972.31	4.11	0.2
972.51	4.09	0.2
972.93	4.04	0.2
973.5	3.98	0.2
974.31	3.93	0.2
974.42	3.88	0.2
974.65	3.86	0.2
975.31	3.855	0.2
975.8	3.84	0.2
976.31	3.8	0.2
976.32	3.77	0.2
976.38	3.74	0.2
977.31	3.72	0.2
977.53	3.7	0.2
978.22	3.7	0.2
978.31	3.7	0.2
978.67	3.69	0.2
979.56	3.68	0.2
979.7	3.66	0.2
981.51	3.615	0.2
981.74	3.56	0.2
981.94	3.55	0.2
982.94	3.58	0.2
983.69	3.63	0.2
984.56	3.69	0.2
985.34	3.76	0.2
985.79	3.81	0.2
988.04	3.83	0.2
988.06	3.83	0.2
988.94	3.81	0.2
990.06	3.8	0.2
990.11	3.8	0.2
991.16	3.82	0.2
991.71	3.85	0.2
991.82	3.88	0.2
992.34	3.91	0.2
993.53	3.93	0.2
993.91	3.94	0.2
994.46	3.93	0.2
995.02	3.91	0.2
995.24	3.87	0.2
995.56	3.83	0.2
996.66	3.79	0.2
997.21	3.74	0.2
997.7	3.7	0.2
998.67	3.67	0.2
999.41	3.65	0.2
999.99	3.63	0.2
1000.41	3.585	0.2
1000.46	3.55	0.2
1001.47	3.54	0.2
1002.54	3.55	0.2
1002.96	3.57	0.2
1003.45	3.6	0.2
1003.7	3.64	0.2
1004.51	3.67	0.2
1005.18	3.73	0.2
1006.01	3.78	0.2
1006.67	3.8	0.2
1007.41	3.81	0.2
1007.51	3.82	0.2
1009.01	3.82	0.2
1009.51	3.82	0.2
1010.38	3.83	0.2
1010.51	3.84	0.2
1011.12	3.86	0.2
1012.02	3.88	0.2
1012.5	3.88	0.2
1013.6	3.88	0.2
1014.26	3.87	0.2
1015.12	3.85	0.2
1015.35	3.83	0.2
1017.1	3.79	0.2
1018.2	3.74	0.2
1018.57	3.69	0.2
1018.84	3.64	0.2
1019.43	3.6	0.2
1020.59	3.56	0.2
1021.25	3.52	0.2
1022.33	3.49	0.2
1022.88	3.47	0.2
1023.75	3.46	0.2
1024.47	3.46	0.2
1026.61	3.46	0.2
1027.08	3.47	0.2
1027.34	3.48	0.2
1027.83	3.49	0.2
1028.75	3.51	0.2
1030.69	3.55	0.2
1030.75	3.59	0.2
1031.38	3.65	0.2
1032.68	3.72	0.2
1032.73	3.79	0.2
1034.15	3.87	0.2
1034.8	3.95	0.2
1034.84	4.02	0.2
1036.92	4.09	0.2
1037.61	4.15	0.2
1037.75	4.18	0.2
1038.31	4.19	0.2
1039.89	4.18	0.2
1040.29	4.16	0.2
1041.08	4.14	0.2
1041.77	4.13	0.2
1042.83	4.13	0.2
1044.14	4.14	0.2
1044.54	4.15	0.2
1045.23	4.15	0.2
1045.36	4.15	0.2
1047.9	4.14	0.2
1048	4.13	0.2
1048.38	4.13	0.2
1048.7	4.13	0.2
1050.44	4.13	0.2
1051.47	4.13	0.2
1052.16	4.12	0.2
1053.21	4.11	0.2
1053.55	4.08	0.2
1054.93	4.05	0.2
1055.62	4.01	0.2
1056.81	3.94	0.2
1056.87	3.86	0.2
1061.57	3.77	0.2
1061.59	3.7	0.2
1062.21	3.64	0.2
1063.63	3.6	0.2
1063.88	3.56	0.2
1064.2	3.53	0.2
1064.67	3.49	0.2
1065.29	3.45	0.2
1066.79	3.41	0.2
1067.3	3.35	0.2
1067.76	3.29	0.2
1068.37	3.23	0.2
1069.95	3.18	0.2
1070.41	3.15	0.2
1070.84	3.16	0.2
1071.46	3.18	0.2
1073.38	3.19	0.2
1073.46	3.2	0.2
1073.83	3.21	0.2
1074.38	3.23	0.2
1076.17	3.26	0.2
1076.24	3.3	0.2
1076.57	3.35	0.2
1077.12	3.39	0.2
1079.01	3.42	0.2
1079.32	3.45	0.2
1079.87	3.48	0.2
1081.76	3.52	0.2
1081.78	3.56	0.2
1082.07	3.61	0.2
1082.62	3.65	0.2
1084.75	3.68	0.2
1084.83	3.71	0.2
1085.36	3.73	0.2
1086.26	3.74	0.2
1088.47	3.76	0.2
1088.96	3.77	0.2
1089.88	3.77	0.2
1090.79	3.76	0.2
1092.2	3.75	0.2
1093.09	3.76	0.2
1094.4	3.81	0.2
1095.31	3.85	0.2
1095.92	3.9	0.2
1097.22	3.94	0.2
1099.65	3.96	0.2
1101.35	3.95	0.2
1103.29	3.91	0.2
1103.31	3.87	0.2
1103.93	3.85	0.2
1105.04	3.84	0.2
1106.22	3.83	0.2
1106.39	3.82	0.2
1107.01	3.81	0.2
1108.43	3.79	0.2
1109.16	3.76	0.2
1109.48	3.72	0.2
1110.1	3.67	0.2
1111.83	3.62	0.2
1112.09	3.62	0.2
1112.56	3.64	0.2
1113.18	3.67	0.2
1114.86	3.67	0.2
1115.26	3.645	0.2
1115.7	3.62	0.2
1116.33	3.63	0.2
1117.41	3.65	0.2
1118.75	3.69	0.2
1118.87	3.74	0.2
1119.5	3.8	0.2
1119.96	3.88	0.2
1121.98	3.97	0.2
1122.04	4.06	0.2
1122.5	4.15	0.2
1122.68	4.21	0.2
1124.17	4.24	0.2
1125.05	4.26	0.2
1125.21	4.25	0.2
1125.85	4.23	0.2
1126.36	4.21	0.2
1127.6	4.18	0.2
1128.39	4.14	0.2
1128.55	4.1	0.2
1129.02	4.07	0.2
1130.74	4.05	0.2
1131.56	4.07	0.2
1132.2	4.09	0.2
1132.69	4.1	0.2
1132.93	4.11	0.2
1134.73	4.1	0.2
1135.12	4.08	0.2
1135.24	4.05	0.2
1135.37	4	0.2
1138.69	3.94	0.2
1138.95	3.88	0.2
1138.96	3.85	0.2
1139.61	3.85	0.2
1143.19	3.83	0.2
1143.33	3.81	0.2
1144.26	3.78	0.2
1147.41	3.75	0.2
1147.97	3.73	0.2
1148.77	3.71	0.2
1148.9	3.69	0.2
1151.64	3.67	0.2
1152.61	3.64	0.2
1153.54	3.61	0.2
1155.87	3.57	0.2
1157.25	3.54	0.2
1158.18	3.51	0.2
1158.6	3.46	0.2
1160.1	3.4	0.2
1161.89	3.37	0.2
1162.82	3.35	0.2
1163.51	3.33	0.2
1166.54	3.32	0.2
1167.19	3.31	0.2
1167.71	3.3	0.2
1167.77	3.29	0.2
1168.69	3.29	0.2
1169.07	3.28	0.2
1170.17	3.3	0.2
1170.57	3.35	0.2
1170.95	3.4	0.2
1172.45	3.44	0.2
1172.63	3.485	0.2
1172.83	3.49	0.2
1174.33	3.48	0.2
1174.71	3.47	0.2
1175.09	3.45	0.2
1176.18	3.44	0.2
1176.21	3.45	0.2
1176.59	3.45	0.2
1177.54	3.45	0.2
1178.11	3.45	0.2
1178.33	3.44	0.2
1178.55	3.43	0.2
1180.29	3.42	0.2
1180.31	3.42	0.2
1180.73	3.43	0.2
1181.23	3.44	0.2
1182.48	3.45	0.2
1182.92	3.47	0.2
1184.14	3.525	0.2
1184.67	3.63	0.2
1185.1	3.73	0.2
1187.04	3.84	0.2
1187.11	3.94	0.2
1187.17	4	0.2
1187.62	4.05	0.2
1187.63	4.08	0.2
1188.59	4.11	0.2
1189.72	4.13	0.2
1189.95	4.14	0.2
1190.02	4.16	0.2
1190.25	4.19	0.2
1190.82	4.22	0.2
1191.44	4.25	0.2
1192.34	4.27	0.2
1192.85	4.29	0.2
1192.86	4.3	0.2
1192.87	4.31	0.2
1194.01	4.32	0.2
1194.29	4.33	0.2
1194.95	4.35	0.2
1195.48	4.34	0.2
1195.51	4.33	0.2
1196.55	4.31	0.2
1197.14	4.28	0.2
1197.57	4.27	0.2
1197.59	4.26	0.2
1198.1	4.26	0.2
1198.65	4.27	0.2
1198.96	4.27	0.2
1199.91	4.28	0.2
1200.5	4.28	0.2
1201.09	4.28	0.2
1201.58	4.27	0.2
1202.29	4.25	0.2
1203.49	4.22	0.2
1203.54	4.2	0.2
1204.08	4.17	0.2
1204.19	4.15	0.2
1204.67	4.13	0.2
1205.17	4.11	0.2
1206.8	4.09	0.2
1206.81	4.06	0.2
1207.05	4.03	0.2
1207.07	3.98	0.2
1208.43	3.93	0.2
1209.43	3.87	0.2
1209.67	3.82	0.2
1210.06	3.79	0.2
1210.07	3.77	0.2
1211.26	3.75	0.2
1211.7	3.74	0.2
1211.81	3.73	0.2
1212.52	3.72	0.2
1213.34	3.72	0.2
1215.29	3.73	0.2
1216.92	3.75	0.2
1217.4	3.76	0.2
1218.64	3.73	0.2
1218.79	3.68	0.2
1219.79	3.63	0.2
1220.72	3.58	0.2
1220.76	3.55	0.2
1222.08	3.54	0.2
1222.65	3.52	0.2
1222.68	3.51	0.2
1224.13	3.49	0.2
1224.58	3.46	0.2
1226.51	3.44	0.2
1226.64	3.4	0.2
1227.5	3.37	0.2
1230.6	3.36	0.2
1230.86	3.35	0.2
1230.99	3.34	0.2
1232.29	3.31	0.2
1234.55	3.27	0.2
1234.66	3.23	0.2
1235.74	3.2	0.2
1236.15	3.17	0.2
1238.08	3.15	0.2
1238.51	3.165	0.2
1240.01	3.22	0.2
1240.09	3.29	0.2
1242.35	3.38	0.2
1243.67	3.51	0.2
1243.86	3.67	0.2
1246.2	3.83	0.2
1250.36	3.98	0.2
1253.7	4.07	0.2
1256.78	4.09	0.2
1258.26	4.06	0.2
1259.82	4	0.2
1259.85	3.94	0.2
1261.88	3.89	0.2
1262.43	3.84	0.2
1262.91	3.81	0.2
1265.97	3.77	0.2
1265.99	3.73	0.2
1269.03	3.69	0.2
1270.77	3.65	0.2
1272.09	3.61	0.2
1275.15	3.57	0.2
1277.7	3.52	0.2
1278.21	3.48	0.2
1278.65	3.44	0.2
1278.7	3.41	0.2
1279.54	3.39	0.2
1280.45	3.38	0.2
1281.28	3.38	0.2
1281.38	3.38	0.2
1282.26	3.4	0.2
1282.52	3.42	0.2
1283.21	3.45	0.2
1284.03	3.49	0.2
1284.48	3.53	0.2
1284.99	3.57	0.2
1286.24	3.61	0.2
1287.53	3.66	0.2
1287.83	3.7	0.2
1289.28	3.75	0.2
1289.95	3.79	0.2
1291.18	3.81	0.2
1293.66	3.82	0.2
1294.52	3.82	0.2
1297.37	3.8	0.2
1300.11	3.79	0.2
1301.06	3.8	0.2
1301.17	3.81	0.2
1303.83	3.81	0.2
1304.61	3.8	0.2
1306.05	3.77	0.2
1306.93	3.72	0.2
1309.15	3.67	0.2
1309.41	3.62	0.2
1309.75	3.58	0.2
1310.82	3.55	0.2
1311.81	3.54	0.2
1312.22	3.53	0.2
1312.57	3.52	0.2
1313.63	3.51	0.2
1314.47	3.5	0.2
1315.03	3.49	0.2
1315.38	3.49	0.2
1316.48	3.5	0.2
1317.94	3.53	0.2
1317.97	3.57	0.2
1318.83	3.61	0.2
1319.05	3.65	0.2
1319.41	3.68	0.2
1319.69	3.7	0.2
1320.54	3.73	0.2
1320.62	3.76	0.2
1320.84	3.79	0.2
1321.4	3.81	0.2
1322.26	3.82	0.2
1322.28	3.83	0.2
1323.12	3.85	0.2
1323.71	3.88	0.2
1323.98	3.9	0.2
1324.84	3.92	0.2
1325.7	3.94	0.2
1326.56	3.96	0.2
1328.8	3.96	0.2
1329.28	3.95	0.2
1331.29	3.91	0.2
1333.78	3.86	0.2
1333.81	3.79	0.2
1338.35	3.73	0.2
1341.25	3.68	0.2
1342.88	3.64	0.2
1343.25	3.61	0.2
1343.74	3.59	0.2
1346.23	3.57	0.2
1347.41	3.55	0.2
1348.71	3.53	0.2
1350.87	3.49	0.2
1351.2	3.44	0.2
1351.95	3.38	0.2
1353.69	3.29	0.2
1356.18	3.19	0.2
1356.48	3.1	0.2
1358.49	3.05	0.2
1360.23	3.075	0.2
1362.11	3.18	0.2
1362.97	3.26	0.2
1363.05	3.35	0.2
1365.27	3.43	0.2
1367.49	3.49	0.2
1368.44	3.55	0.2
1368.98	3.6	0.2
1371.19	3.64	0.2
1371.6	3.68	0.2
1371.96	3.72	0.2
1374.76	3.76	0.2
1376.44	3.81	0.2
1376.67	3.85	0.2
1377.93	3.93	0.2
1379.41	3.99	0.2
1379.42	4.01	0.2
1380.91	4.01	0.2
1382.15	3.99	0.2
1382.4	3.98	0.2
1383.89	3.97	0.2
1384.25	3.95	0.2
1384.89	3.93	0.2
1385.38	3.89	0.2
1386.87	3.84	0.2
1387.42	3.78	0.2
1387.63	3.72	0.2
1388.36	3.66	0.2
1390.33	3.59	0.2
1390.54	3.52	0.2
1391.63	3.48	0.2
1393.27	3.45	0.2
1393.62	3.44	0.2
1394.92	3.43	0.2
1395.67	3.43	0.2
1396.57	3.42	0.2
1396.7	3.4	0.2
1398.22	3.37	0.2
1398.34	3.34	0.2
1399.41	3.31	0.2
1399.79	3.28	0.2
1401.52	3.25	0.2
1402.1	3.23	0.2
1403.5	3.23	0.2
1403.91	3.25	0.2
1404.51	3.32	0.2
1404.81	3.41	0.2
1406.8	3.53	0.2
1407.53	3.64	0.2
1408.15	3.73	0.2
1410.1	3.81	0.2
1410.24	3.87	0.2
1412.4	3.92	0.2
1412.95	3.95	0.2
1413.4	3.96	0.2
1414.21	3.96	0.2
1415.66	3.94	0.2
1415.76	3.92	0.2
1416.7	3.88	0.2
1417.3	3.83	0.2
1418.9	3.77	0.2
1421.21	3.71	0.2
1421.25	3.65	0.2
1423.73	3.59	0.2
1423.98	3.53	0.2
1424.37	3.49	0.2
1426.89	3.45	0.2
1427.49	3.41	0.2
1427.97	3.37	0.2
1430.62	3.3	0.2
1431.51	3.22	0.2
1431.95	3.12	0.2
1434.14	3.01	0.2
1435.94	2.93	0.2
1437.46	2.88	0.2
1438.07	2.86	0.2
1439.92	2.86	0.2
1441.56	2.88	0.2
1442	2.91	0.2
1444.97	2.97	0.2
1445.06	3.06	0.2
1447.81	3.19	0.2
1450.51	3.36	0.2
1452.1	3.55	0.2
1453.21	3.73	0.2
1454.09	3.88	0.2
1457.9	3.97	0.2
1460.14	4	0.2
1461.3	3.98	0.2
1464	3.93	0.2
1464.67	3.85	0.2
1465.69	3.77	0.2
1467.31	3.68	0.2
1467.86	3.6	0.2
1469.92	3.55	0.2
1470.62	3.51	0.2
1471.05	3.49	0.2
1473.92	3.48	0.2
1474.14	3.45	0.2
1474.24	3.42	0.2
1477.19	3.37	0.2
1477.43	3.32	0.2
1478.37	3.26	0.2
1481.37	3.21	0.2
1482.6	3.15	0.2
1483.65	3.09	0.2
1486.07	3.04	0.2
1487.64	3.03	0.2
1491.48	3.07	0.2
1491.73	3.15	0.2
1496.88	3.26	0.2
1503.47	3.36	0.2
1506.4	3.45	0.2
1514.38	3.49	0.2
1517.04	3.5	0.2
1518.13	3.48	0.2
1518.74	3.46	0.2
1519.71	3.44	0.2
1520.61	3.43	0.2
1520.75	3.43	0.2
1522.37	3.43	0.2
1522.75	3.43	0.2
1523.1	3.43	0.2
1524.76	3.46	0.2
1525.03	3.51	0.2
1525.58	3.59	0.2
1528.07	3.69	0.2
1530.36	3.78	0.2
1530.37	3.85	0.2
1530.78	3.87	0.2
1532.4	3.85	0.2
1533.03	3.82	0.2
1534.43	3.78	0.2
1535.71	3.76	0.2
1536.68	3.73	0.2
1540.64	3.7	0.2
1541.14	3.66	0.2
1543.59	3.61	0.2
1543.68	3.57	0.2
1544.82	3.56	0.2
1547.46	3.56	0.2
1548.38	3.575	0.2
1550.2	3.59	0.2
1550.92	3.59	0.2
1553.78	3.58	0.2
1556.99	3.55	0.2
1560.2	3.51	0.2
1561.33	3.46	0.2
1563.24	3.42	0.2
1564.8	3.39	0.2
1566.63	3.38	0.2
1567.11	3.39	0.2
1567.95	3.43	0.2
1569.69	3.5	0.2
1569.73	3.58	0.2
1572.26	3.68	0.2
1573.18	3.76	0.2
1574.83	3.82	0.2
1576.97	3.85	0.2
1577.4	3.83	0.2
1583.15	3.79	0.2
1583.68	3.73	0.2
1586.85	3.68	0.2
1586.99	3.65	0.2
1597.12	3.62	0.2
1598.22	3.61	0.2
1599.99	3.59	0.2
1600.76	3.56	0.2
1602.11	3.52	0.2
1602.85	3.48	0.2
1603.88	3.43	0.2
1605.72	3.39	0.2
1606	3.36	0.2
1607.33	3.34	0.2
1609.45	3.35	0.2
1609.52	3.37	0.2
1611.48	3.39	0.2
1613.05	3.42	0.2
1613.28	3.45	0.2
1615.64	3.47	0.2
1616.54	3.49	0.2
1617.05	3.5	0.2
1619.9	3.5	0.2
1620.59	3.5	0.2
1622.04	3.48	0.2
1623.26	3.46	0.2
1624.12	3.44	0.2
1624.28	3.43	0.2
1624.97	3.42	0.2
1625.95	3.43	0.2
1626.73	3.45	0.2
1627.62	3.48	0.2
1627.65	3.53	0.2
1628.25	3.58	0.2
1629.3	3.63	0.2
1630.98	3.67	0.2
1631.18	3.67	0.2
1632.66	3.63	0.2
1634.35	3.57	0.2
1634.59	3.5	0.2
1635.27	3.43	0.2
1636.09	3.38	0.2
1637.42	3.34	0.2
1637.47	3.31	0.2
1637.83	3.28	0.2
1639.57	3.26	0.2
1639.67	3.23	0.2
1640.25	3.21	0.2
1641.17	3.21	0.2
1641.31	3.21	0.2
1641.91	3.22	0.2
1642.91	3.23	0.2
1643.07	3.25	0.2
1643.96	3.27	0.2
1644.76	3.32	0.2
1645.03	3.38	0.2
1645.25	3.44	0.2
1645.68	3.49	0.2
1646.84	3.53	0.2
1647.93	3.57	0.2
1648.64	3.62	0.2
1648.79	3.7	0.2
1650.45	3.79	0.2
1651.9	3.87	0.2
1654.07	3.9	0.2
1654.62	3.89	0.2
1655.01	3.84	0.2
1657.69	3.8	0.2
1657.97	3.77	0.2
1658.12	3.78	0.2
1659.5	3.81	0.2
1661.23	3.84	0.2
1663.12	3.85	0.2
1664.34	3.85	0.2
1664.93	3.84	0.2
1667.45	3.84	0.2
1668	3.85	0.2
1668.55	3.87	0.2
1670.36	3.88	0.2
1672.29	3.86	0.2
1674.27	3.83	0.2
1674.45	3.755	0.2
1676.01	3.69	0.2
1677.08	3.65	0.2
1677.57	3.61	0.2
1678.76	3.57	0.2
1679.12	3.52	0.2
1680.92	3.47	0.2
1685.5	3.43	0.2
1686.91	3.4	0.2
1688.31	3.39	0.2
1691.12	3.38	0.2
1691.58	3.38	0.2
1693.86	3.39	0.2
1693.93	3.41	0.2
1694.7	3.43	0.2
1696.01	3.45	0.2
1696.74	3.46	0.2
1697.81	3.47	0.2
1699.54	3.5	0.2
1700.33	3.54	0.2
1700.93	3.58	0.2
1702.35	3.64	0.2
1702.49	3.69	0.2
1704.64	3.74	0.2
1705.21	3.75	0.2
1709.43	3.73	0.2
1710.95	3.68	0.2
1711.87	3.61	0.2
1713.65	3.55	0.2
1714.13	3.49	0.2
1714.31	3.45	0.2
1716.36	3.37	0.2
1716.88	3.29	0.2
1719.48	3.26	0.2
1720.09	3.27	0.2
1722.83	3.32	0.2
1723.48	3.38	0.2
1725.18	3.44	0.2
1729.8	3.47	0.2
1732.09	3.48	0.2
1732.55	3.47	0.2
1733.92	3.47	0.2
1734.84	3.48	0.2
1735.59	3.52	0.2
1736.65	3.6	0.2
1739.48	3.7	0.2
1741.61	3.78	0.2
1742.39	3.84	0.2
1744.7	3.86	0.2
1745.95	3.86	0.2
1747.8	3.84	0.2
1748.66	3.8	0.2
1751.11	3.74	0.2
1753.52	3.65	0.2
1753.54	3.52	0.2
1755.66	3.37	0.2
1756.76	3.22	0.2
1760	3.09	0.2
1760.64	3.02	0.2
1763.25	3	0.2
1766.49	3.02	0.2
1767.74	3.07	0.2
1769.74	3.13	0.2
1773.14	3.19	0.2
1776.81	3.28	0.2
1780.48	3.4	0.2
1784.15	3.54	0.2
1787.82	3.68	0.2
1791.49	3.78	0.2
1793.52	3.83	0.2
1795.16	3.82	0.2
1796.38	3.78	0.2
1797	3.73	0.2
1798.93	3.68	0.2
1799.33	3.64	0.2
1799.98	3.6	0.2
1801.67	3.58	0.2
1806.33	3.57	0.2
1806.63	3.56	0.2
1807.43	3.54	0.2
1810.48	3.51	0.2
1811	3.46	0.2
1811.17	3.42	0.2
1814.11	3.39	0.2
1815.43	3.38	0.2
1815.5	3.39	0.2
1817.51	3.42	0.2
1819.44	3.46	0.2
1820	3.495	0.2
1820.9	3.49	0.2
1823.35	3.46	0.2
1823.46	3.44	0.2
1824.72	3.43	0.2
1826.43	3.45	0.2
1827.51	3.49	0.2
1828.56	3.54	0.2
1829.51	3.58	0.2
1831.56	3.6	0.2
1832.01	3.6	0.2
1832.6	3.59	0.2
1835.51	3.61	0.2
1835.75	3.65	0.2
1836.34	3.71	0.2
1838.9	3.8	0.2
1839.42	3.87	0.2
1842.05	3.93	0.2
1843.26	3.94	0.2
1843.7	3.92	0.2
1844.73	3.88	0.2
1846.19	3.83	0.2
1846.33	3.78	0.2
1847.19	3.72	0.2
1848.68	3.67	0.2
1849.4	3.62	0.2
1849.66	3.59	0.2
1851.17	3.56	0.2
1852.13	3.54	0.2
1852.47	3.52	0.2
1854.74	3.5	0.2
1855.72	3.49	0.2
1855.89	3.5	0.2
1857.8	3.51	0.2
1858.28	3.54	0.2
1859.16	3.58	0.2
1860.67	3.62	0.2
1860.86	3.65	0.2
1862.6	3.66	0.2
1863.93	3.65	0.2
1866.39	3.62	0.2
1866.95	3.58	0.2
1867.51	3.55	0.2
1870.43	3.53	0.2
1871.1	3.52	0.2
1873.57	3.51	0.2
1874.36	3.5	0.2
1874.45	3.49	0.2
1877.07	3.46	0.2
1877.91	3.44	0.2
1879.69	3.42	0.2
1880.33	3.4	0.2
1881.14	3.38	0.2
1882.32	3.36	0.2
1883.66	3.35	0.2
1884.38	3.33	0.2
1886.59	3.3	0.2
1887.18	3.28	0.2
1889.3	3.27	0.2
1889.88	3.27	0.2
1892.01	3.27	0.2
1892.58	3.27	0.2
1893.79	3.28	0.2
1894.72	3.3	0.2
1895.28	3.32	0.2
1896.23	3.36	0.2
1897.43	3.42	0.2
1897.98	3.48	0.2
1898.67	3.56	0.2
1900.14	3.64	0.2
1900.68	3.72	0.2
1903.38	3.79	0.2
1903.39	3.85	0.2
1905.56	3.91	0.2
1906.08	3.97	0.2
1907.71	4	0.2
1908.44	4	0.2
1908.78	3.97	0.2
1909.79	3.93	0.2
1910.88	3.87	0.2
1911.48	3.82	0.2
1911.87	3.78	0.2
1913.9	3.75	0.2
1913.96	3.73	0.2
1917.14	3.71	0.2
1917.82	3.7	0.2
1919.09	3.68	0.2
1922.21	3.65	0.2
1922.68	3.63	0.2
1925.33	3.61	0.2
1926.5	3.59	0.2
1927.03	3.55	0.2
1928.46	3.51	0.2
1929.71	3.46	0.2
1931.18	3.41	0.2
1933.73	3.37	0.2
1935.33	3.35	0.2
1937.11	3.35	0.2
1938.23	3.37	0.2
1939.99	3.39	0.2
1940.55	3.41	0.2
1941.08	3.43	0.2
1942.88	3.47	0.2
1945.76	3.54	0.2
1946.11	3.64	0.2
1948.89	3.74	0.2
1949.22	3.84	0.2
1949.63	3.9	0.2
1951.53	3.92	0.2
1951.67	3.9	0.2
1952.48	3.84	0.2
1954.19	3.76	0.2
1954.41	3.67	0.2
1955.56	3.61	0.2
1955.62	3.57	0.2
1957.05	3.55	0.2
1957.56	3.54	0.2
1958.53	3.54	0.2
1959.01	3.55	0.2
1959.8	3.56	0.2
1960.04	3.57	0.2
1961.55	3.56	0.2
1962.7	3.55	0.2
1963.07	3.52	0.2
1964.58	3.49	0.2
1966.1	3.45	0.2
1967.57	3.41	0.2
1967.61	3.35	0.2
1969.31	3.29	0.2
1971.07	3.23	0.2
1972.83	3.19	0.2
1973.34	3.15	0.2
1974.49	3.14	0.2
1974.59	3.15	0.2
1976.26	3.2	0.2
1976.35	3.29	0.2
1978.61	3.42	0.2
1986.9	3.57	0.2
1986.94	3.7	0.2
1987.96	3.8	0.2
1990.42	3.85	0.2
1991.31	3.86	0.2
1992.18	3.85	0.2
1993.8	3.83	0.2
1993.94	3.8	0.2
1996	3.76	0.2
1997.45	3.73	0.2
1998.5	3.69	0.2
2001	3.66	0.2
2002.15	3.62	0.2
2003.5	3.58	0.2
2006	3.55	0.2
2007.39	3.52	0.2
2008.5	3.5	0.2
2011	3.5	0.2
2012.05	3.49	0.2
2012.61	3.47	0.2
2014.21	3.43	0.2
2015.42	3.37	0.2
2015.82	3.31	0.2
2015.91	3.26	0.2
2017.43	3.22	0.2
2019.04	3.19	0.2
2020.64	3.15	0.2
2022.15	3.11	0.2
2022.21	3.08	0.2
2023.74	3.06	0.2
2024.75	3.05	0.2
2024.98	3.06	0.2
2025.28	3.08	0.2
2026.81	3.1	0.2
2027.58	3.14	0.2
2027.67	3.19	0.2
2028.35	3.24	0.2
2029.88	3.29	0.2
2030.4	3.34	0.2
2031.41	3.38	0.2
2032.95	3.43	0.2
2033.06	3.48	0.2
2034.48	3.53	0.2
2035.75	3.57	0.2
2036.02	3.6	0.2
2037.55	3.62	0.2
2038.44	3.63	0.2
2038.87	3.64	0.2
2039.09	3.64	0.2
2040.62	3.62	0.2
2041.13	3.58	0.2
2041.72	3.53	0.2
2042.15	3.46	0.2
2043.69	3.39	0.2
2043.78	3.34	0.2
2047.64	3.31	0.2
2048.29	3.29	0.2
2049.07	3.28	0.2
2050.6	3.27	0.2
2051.71	3.26	0.2
2054.35	3.25	0.2
2056.52	3.25	0.2
2057	3.28	0.2
2057.3	3.34	0.2
2059.48	3.43	0.2
2059.64	3.53	0.2
2060.27	3.62	0.2
2062.32	3.71	0.2
2062.49	3.78	0.2
2063.39	3.83	0.2
2065.04	3.88	0.2
2065.26	3.93	0.2
2066.7	3.98	0.2
2068.2	4.02	0.2
2069.07	4.05	0.2
2070.01	4.07	0.2
2071.14	4.07	0.2
2072.36	4.05	0.2
2074.08	4.01	0.2
2074.97	3.96	0.2
2075.65	3.92	0.2
2077.03	3.89	0.2
2079.93	3.87	0.2
2079.97	3.85	0.2
2081.58	3.84	0.2
2082.61	3.82	0.2
2083.24	3.79	0.2
2085.21	3.75	0.2
2086.49	3.7	0.2
2086.55	3.65	0.2
2087.81	3.59	0.2
2089.68	3.54	0.2
2092.51	3.49	0.2
2093.02	3.45	0.2
2093.16	3.41	0.2
2094.27	3.37	0.2
2095.63	3.32	0.2
2096.14	3.27	0.2
2098.05	3.23	0.2
2098.39	3.19	0.2
2099.28	3.17	0.2
2101.44	3.18	0.2
2102.37	3.21	0.2
2105.03	3.26	0.2
2105.76	3.32	0.2
2107.53	3.38	0.2
2108.48	3.41	0.2
2109.08	3.42	0.2
2110.34	3.4	0.2
2113.1	3.37	0.2
2115.31	3.34	0.2
2115.87	3.31	0.2
2118.08	3.29	0.2
2118.42	3.29	0.2
2118.64	3.3	0.2
2121.41	3.34	0.2
2124.17	3.39	0.2
2124.65	3.46	0.2
2126.03	3.52	0.2
2127.77	3.57	0.2
2129.04	3.6	0.2
2130.1	3.59	0.2
2130.89	3.57	0.2
2131.57	3.52	0.2
2132.37	3.46	0.2
2132.73	3.39	0.2
2133.75	3.32	0.2
2134.58	3.24	0.2
2134.65	3.16	0.2
2135.93	3.07	0.2
2136.42	2.98	0.2
2136.88	2.9	0.2
2138.27	2.83	0.2
2139.05	2.8	0.2
2140.16	2.82	0.2
2140.4	2.89	0.2
2142.43	3	0.2
2143.71	3.14	0.2
2144.64	3.28	0.2
2144.69	3.41	0.2
2146.95	3.55	0.2
2147.22	3.68	0.2
2147.62	3.81	0.2
2149.22	3.94	0.2
2151.48	4.03	0.2
2153.74	4.1	0.2
2154.07	4.13	0.2
2155.62	4.14	0.2
2156.03	4.13	0.2
2156.56	4.11	0.2
2158.73	4.09	0.2
2159.27	4.04	0.2
2159.54	3.99	0.2
2160.28	3.96	0.2
2161.23	3.94	0.2
2162.57	3.93	0.2
2162.74	3.92	0.2
2164.11	3.9	0.2
2165.35	3.86	0.2
2165.64	3.83	0.2
2167.98	3.78	0.2
2168.7	3.74	0.2
2170.61	3.69	0.2
2171.46	3.66	0.2
2171.76	3.62	0.2
2173.24	3.58	0.2
2174.92	3.54	0.2
2175.45	3.48	0.2
2177.88	3.42	0.2
2179.71	3.36	0.2
2180.94	3.29	0.2
2183.8	3.24	0.2
2184.29	3.19	0.2
2186.02	3.16	0.2
2186.52	3.14	0.2
2186.77	3.13	0.2
2189.13	3.125	0.2
2189.98	3.13	0.2
2191.59	3.17	0.2
2193.76	3.26	0.2
2194.05	3.36	0.2
2196.51	3.47	0.2
2197.53	3.57	0.2
2198.27	3.63	0.2
2198.97	3.68	0.2
2200.51	3.71	0.2
2200.72	3.73	0.2
2201.44	3.74	0.2
2202.44	3.74	0.2
2203.07	3.73	0.2
2203.82	3.71	0.2
2204.37	3.69	0.2
2205.41	3.67	0.2
2206.19	3.65	0.2
2206.29	3.62	0.2
2207.76	3.59	0.2
2208.22	3.55	0.2
2208.57	3.49	0.2
2210.95	3.43	0.2
2213.26	3.39	0.2
2214.08	3.36	0.2
2215.93	3.35	0.2
2220.97	3.36	0.2
2221.18	3.36	0.2
2223.01	3.34	0.2
2224.23	3.32	0.2
2225.02	3.28	0.2
2226.95	3.25	0.2
2227.02	3.22	0.2
2227.27	3.2	0.2
2228.8	3.17	0.2
2229.03	3.15	0.2
2229.21	3.15	0.2
2231.04	3.16	0.2
2231.48	3.2	0.2
2231.84	3.25	0.2
2232.75	3.31	0.2
2233.05	3.36	0.2
2234.18	3.42	0.2
2234.52	3.48	0.2
2235.44	3.55	0.2
2236.33	3.62	0.2
2237.36	3.68	0.2
2237.92	3.75	0.2
2239.2	3.81	0.2
2240.53	3.85	0.2
2240.54	3.86	0.2
2242.83	3.85	0.2
2243.15	3.81	0.2
2243.72	3.75	0.2
2245.77	3.68	0.2
2246.85	3.59	0.2
2246.9	3.5	0.2
2248.39	3.4	0.2
2250.84	3.32	0.2
2250.88	3.24	0.2
2254.9	3.16	0.2
2255.74	3.1	0.2
2257.32	3.06	0.2
2259.78	3.04	0.2
2260.26	3.05	0.2
2262.5	3.08	0.2
2263.76	3.11	0.2
2264.7	3.13	0.2
2266.42	3.15	0.2
2269.27	3.2	0.2
2270.77	3.26	0.2
2272.08	3.35	0.2
2274.27	3.45	0.2
2274.54	3.55	0.2
2277.77	3.63	0.2
2279.46	3.69	0.2
2281.28	3.72	0.2
2282.17	3.73	0.2
2282.8	3.72	0.2
2284.78	3.7	0.2
2286.18	3.68	0.2
2286.84	3.66	0.2
2288.28	3.61	0.2
2289.3	3.54	0.2
2291.76	3.44	0.2
2291.79	3.32	0.2
2295.29	3.21	0.2
2296.68	3.12	0.2
2298.02	3.05	0.2
2298.8	3	0.2
2299.63	2.98	0.2
2301.41	2.97	0.2
2301.6	2.97	0.2
2302.3	2.99	0.2
2303.09	3.03	0.2
2305.56	3.08	0.2
2308.72	3.15	0.2
2311.49	3.22	0.2
2311.89	3.3	0.2
2315.07	3.36	0.2
2315.38	3.4	0.2
2321.74	3.42	0.2
2327.79	3.43	0.2
2328.65	3.43	0.2
2331.05	3.43	0.2
2334.32	3.44	0.2
2336.88	3.45	0.2
2336.9	3.47	0.2
2336.96	3.48	0.2
2338.07	3.5	0.2
2338.82	3.5	0.2
2338.94	3.5	0.2
2339.19	3.49	0.2
2340.31	3.48	0.2
2340.58	3.47	0.2
2340.77	3.45	0.2
2340.99	3.43	0.2
2341.43	3.4	0.2
2342.52	3.36	0.2
2342.54	3.32	0.2
2342.72	3.27	0.2
2343.03	3.22	0.2
2343.66	3.17	0.2
2344.47	3.13	0.2
2344.78	3.1	0.2
2345.08	3.08	0.2
2345.9	3.08	0.2
2346.42	3.07	0.2
2347.02	3.06	0.2
2347.18	3.05	0.2
2348.66	3.04	0.2
2349.89	3.05	0.2
2350.26	3.06	0.2
2351.94	3.09	0.2
2353.37	3.12	0.2
2353.58	3.17	0.2
2354.01	3.23	0.2
2357.01	3.3	0.2
2358.77	3.36	0.2
2359.6	3.4	0.2
2362.29	3.43	0.2
2362.71	3.44	0.2
2365.81	3.45	0.2
2365.82	3.46	0.2
2367.57	3.44	0.2
2369.33	3.4	0.2
2377.75	3.32	0.2
2378.76	3.23	0.2
2382.22	3.14	0.2
2391.14	3.07	0.2
2391.17	3.02	0.2
2395.26	3.01	0.2
2395.64	3.02	0.2
2398.73	3.06	0.2
2399.39	3.13	0.2
2400.12	3.21	0.2
2402.98	3.27	0.2
2404.5	3.3	0.2
2408.42	3.29	0.2
2409.63	3.25	0.2
2411.48	3.2	0.2
2415.07	3.17	0.2
2417.62	3.16	0.2
2419.85	3.17	0.2
2420.36	3.18	0.2
2422.02	3.2	0.2
2423.75	3.21	0.2
2424.19	3.23	0.2
2424.36	3.27	0.2
2426.36	3.33	0.2
2427.43	3.39	0.2
2428.05	3.47	0.2
2428.53	3.54	0.2
2430.5	3.62	0.2
2430.62	3.7	0.2
2432.85	3.78	0.2
2433.56	3.86	0.2
2435.01	3.93	0.2
2435.74	3.97	0.2
2436.02	3.99	0.2
2436.95	3.97	0.2
2438.31	3.92	0.2
2439.1	3.84	0.2
2440.87	3.76	0.2
2442.49	3.68	0.2
2443.43	3.62	0.2
2445.1	3.57	0.2
2445.56	3.53	0.2
2446	3.49	0.2
2447.72	3.44	0.2
2448.78	3.4	0.2
2450.6	3.35	0.2
2450.86	3.29	0.2
2453.6	3.22	0.2
2454.16	3.13	0.2
2455.7	3.05	0.2
2456.6	2.98	0.2
2457.45	2.95	0.2
2459.16	2.95	0.2
2459.6	2.98	0.2
2460.74	3.02	0.2
2462.59	3.04	0.2
2462.61	3.04	0.2
2464.03	3.03	0.2
2466.07	3.01	0.2
2467.33	3.02	0.2
2469.52	3.08	0.2
2470.62	3.17	0.2
2472.68	3.29	0.2
2476.11	3.41	0.2
2476.43	3.52	0.2
2477.2	3.62	0.2
2479.55	3.71	0.2
2479.89	3.8	0.2
2480.5	3.89	0.2
2482.98	3.97	0.2
2483.79	4.03	0.2
2486.41	4.06	0.2
2487.13	4.05	0.2
2487.37	3.99	0.2
2489.31	3.91	0.2
2490.42	3.8	0.2
2492.09	3.7	0.2
2493.71	3.6	0.2
2494.88	3.52	0.2
2497.24	3.45	0.2
2500.44	3.39	0.2
2500.91	3.35	0.2
2503.23	3.33	0.2
2503.58	3.32	0.2
2504.57	3.32	0.2
2506.87	3.34	0.2
2508.24	3.38	0.2
2508.74	3.44	0.2
2510.16	3.54	0.2
2511.36	3.67	0.2
2513.45	3.8	0.2
2514.24	3.92	0.2
2516.86	4.02	0.2
2516.99	4.09	0.2
2519.61	4.14	0.2
2519.74	4.17	0.2
2520.03	4.18	0.2
2522.36	4.17	0.2
2522.49	4.14	0.2
2522.76	4.1	0.2
2525.51	4.06	0.2
2526.61	4.01	0.2
2527.86	3.96	0.2
2528.32	3.89	0.2
2531.12	3.81	0.2
2533.03	3.72	0.2
2533.81	3.63	0.2
2533.92	3.53	0.2
2536.1	3.41	0.2
2536.72	3.27	0.2
2539.17	3.13	0.2
2540.32	3.02	0.2
2542.68	2.97	0.2
2546.85	2.98	0.2
2548.13	3.03	0.2
2549.92	3.11	0.2
2550.05	3.17	0.2
2551.1	3.23	0.2
2552.98	3.27	0.2
2553.61	3.3	0.2
2556.83	3.34	0.2
2558.96	3.38	0.2
2559.9	3.4	0.2
2560.01	3.42	0.2
2562.97	3.41	0.2
2562.98	3.39	0.2
2565.95	3.36	0.2
2566.04	3.33	0.2
2567.68	3.31	0.2
2568.92	3.31	0.2
2569.1	3.3	0.2
2571.89	3.28	0.2
2572.17	3.23	0.2
2574.61	3.17	0.2
2575.24	3.1	0.2
2576.39	3.04	0.2
2577.09	2.99	0.2
2578.31	2.96	0.2
2578.43	2.96	0.2
2579.57	2.97	0.2
2581.38	2.98	0.2
2582.05	2.98	0.2
2582.2	2.98	0.2
2584.45	2.99	0.2
2585.11	3.02	0.2
2586.8	3.06	0.2
2587.51	3.12	0.2
2588.05	3.17	0.2
2589.75	3.22	0.2
2590.58	3.26	0.2
2592.42	3.29	0.2
2593.95	3.32	0.2
2595.49	3.34	0.2
2595.63	3.37	0.2
2595.65	3.41	0.2
2597.42	3.45	0.2
2598.4	3.47	0.2
2598.56	3.48	0.2
2600.22	3.49	0.2
2600.62	3.51	0.2
2601.55	3.53	0.2
2603.56	3.57	0.2
2603.67	3.6	0.2
2604.37	3.61	0.2
2605.06	3.59	0.2
2607.52	3.54	0.2
2607.62	3.48	0.2
2607.75	3.43	0.2
2608.66	3.4	0.2
2611.14	3.39	0.2
2611.37	3.38	0.2
2611.68	3.37	0.2
2612.27	3.35	0.2
2613.85	3.31	0.2
2615.23	3.25	0.2
2615.74	3.2	0.2
2616.2	3.14	0.2
2617.85	3.1	0.2
2617.91	3.08	0.2
2619.08	3.08	0.2
2620.21	3.1	0.2
2621.48	3.12	0.2
2621.79	3.12	0.2
2622.56	3.09	0.2
2623.62	3.04	0.2
2624.47	2.99	0.2
2625.4	2.96	0.2
2627.54	2.95	0.2
2628.14	2.97	0.2
2628.97	2.99	0.2
2629.31	3.02	0.2
2630.78	3.03	0.2
2631.4	3.04	0.2
2631.8	3.05	0.2
2632.56	3.06	0.2
2633.04	3.09	0.2
2635.47	3.12	0.2
2635.7	3.15	0.2
2635.81	3.17	0.2
2635.86	3.19	0.2
2636.41	3.2	0.2
2638.68	3.21	0.2
2639.06	3.24	0.2
2639.11	3.27	0.2
2639.13	3.3	0.2
2641.51	3.33	0.2
2642.32	3.37	0.2
2642.43	3.41	0.2
2642.96	3.47	0.2
2644.86	3.54	0.2
2645.57	3.59	0.2
2645.82	3.64	0.2
2646.82	3.67	0.2
2647.82	3.69	0.2
2648	3.7	0.2
2649	3.71	0.2
2650.3	3.69	0.2
2650.42	3.66	0.2
2650.77	3.63	0.2
2652.34	3.58	0.2
2652.38	3.53	0.2
2652.5	3.48	0.2
2653.7	3.44	0.2
2653.91	3.41	0.2
2654.9	3.4	0.2
2655.74	3.38	0.2
2655.75	3.35	0.2
2656.94	3.31	0.2
2657.4	3.26	0.2
2657.77	3.2	0.2
2659.13	3.15	0.2
2660.01	3.1	0.2
2660.89	3.07	0.2
2661.8	3.06	0.2
2662.5	3.06	0.2
2662.53	3.06	0.2
2664.36	3.06	0.2
2665.45	3.04	0.2
2665.75	3.02	0.2
2666.03	3	0.2
2666.42	2.99	0.2
2666.98	2.99	0.2
2668.68	3	0.2
2668.69	3.01	0.2
2668.7	3	0.2
2669.72	2.99	0.2
2669.78	2.97	0.2
2671.61	2.96	0.2
2672.02	2.96	0.2
2672.58	2.97	0.2
2674.06	2.99	0.2
2674.55	3	0.2
2674.83	3.01	0.2
2675.38	3.01	0.2
2676.73	2.99	0.2
2677.48	2.95	0.2
2677.9	2.895	0.2
2678.18	2.88	0.2
2678.4	2.91	0.2
2679.41	2.96	0.2
2679.94	3.03	0.2
2680.41	3.1	0.2
2680.99	3.16	0.2
2682.09	3.22	0.2
2682.24	3.31	0.2
2683.35	3.38	0.2
2683.79	3.41	0.2
2684.76	3.4	0.2
2684.88	3.39	0.2
2685.06	3.375	0.2
2686.28	3.38	0.2
2686.33	3.45	0.2
2686.59	3.57	0.2
2688.76	3.69	0.2
2689.21	3.79	0.2
2690.12	3.85	0.2
2692.14	3.84	0.2
2692.2	3.79	0.2
2692.21	3.665	0.2
2692.79	3.55	0.2
2693.23	3.465	0.2
2694.59	3.42	0.2
2695	3.42	0.2
2695.08	3.42	0.2
2695.53	3.43	0.2
2697.8	3.44	0.2
2697.83	3.44	0.2
2698.01	3.43	0.2
2698.34	3.38	0.2
2700.13	3.335	0.2
2700.6	3.35	0.2
2700.94	3.38	0.2
2701.07	3.42	0.2
2702.69	3.475	0.2
2703.4	3.53	0.2
2703.88	3.57	0.2
2704.86	3.6	0.2
2705.24	3.615	0.2
2706.21	3.63	0.2
2706.81	3.64	0.2
2707.45	3.66	0.2
2707.54	3.7	0.2
2709.01	3.74	0.2
2709.08	3.8	0.2
2709.74	3.84	0.2
2709.89	3.85	0.2
2710.78	3.84	0.2
2711.25	3.83	0.2
2711.89	3.815	0.2
2712.34	3.78	0.2
2712.68	3.75	0.2
2713.17	3.74	0.2
2713.47	3.78	0.2
2714.78	3.81	0.2
2715.61	3.82	0.2
2715.94	3.79	0.2
2716.23	3.74	0.2
2716.28	3.7	0.2
2717.28	3.68	0.2
2717.48	3.7	0.2
2718.48	3.75	0.2
2719.29	3.81	0.2
2719.65	3.86	0.2
2720.4	3.9	0.2
2720.99	3.93	0.2
2721.53	3.93	0.2
2722.55	3.91	0.2
2722.83	3.85	0.2
2723.52	3.77	0.2
2724.49	3.7	0.2
2724.58	3.64	0.2
2725.73	3.61	0.2
2725.82	3.6	0.2
2726.64	3.59	0.2
2727.29	3.58	0.2
2727.62	3.54	0.2
2727.99	3.49	0.2
2728.05	3.44	0.2
2729.08	3.39	0.2
2729.76	3.37	0.2
2730.67	3.34	0.2
2730.8	3.3	0.2
2731.5	3.26	0.2
2731.53	3.22	0.2
2732.87	3.19	0.2
2733.72	3.16	0.2
2734.43	3.13	0.2
2735	3.12	0.2
2735.61	3.11	0.2
2736.07	3.11	0.2
2736.77	3.09	0.2
2738.51	3.07	0.2
2739.33	3.03	0.2
2739.81	3	0.2
2740.22	2.98	0.2
2741.96	2.95	0.2
2742.14	2.93	0.2
2742.59	2.91	0.2
2743.12	2.88	0.2
2744.22	2.86	0.2
2745.27	2.85	0.2
2745.91	2.85	0.2
2746.02	2.86	0.2
2747.48	2.89	0.2
2748.63	2.93	0.2
2748.67	2.98	0.2
2749	3.03	0.2
2750.75	3.07	0.2
2751.9	3.09	0.2
2752.27	3.11	0.2
2752.39	3.12	0.2
2753.57	3.11	0.2
2754.01	3.1	0.2
2754.71	3.08	0.2
2755.2	3.06	0.2
2755.21	3.04	0.2
2756.84	3.01	0.2
2757.27	2.98	0.2
2757.61	2.97	0.2
2758.53	3.015	0.2
2760.1	3.09	0.2
2760.51	3.13	0.2
2760.53	3.17	0.2
2761.84	3.2	0.2
2763.37	3.22	0.2
2763.41	3.23	0.2
2763.8	3.23	0.2
2764.02	3.23	0.2
2764.82	3.25	0.2
2765	3.29	0.2
2765.17	3.33	0.2
2766.4	3.36	0.2
2766.75	3.36	0.2
2767.11	3.32	0.2
2767.21	3.24	0.2
2768.02	3.15	0.2
2768.51	3.08	0.2
2768.64	3.02	0.2
2769.78	2.99	0.2
2770.11	2.99	0.2
2772.02	3.01	0.2
2772.34	3.04	0.2
2772.35	3.07	0.2
2773.08	3.07	0.2
2774.01	3.04	0.2
2774.19	3	0.2
2774.91	2.97	0.2
2775.53	2.96	0.2
2777	2.98	0.2
2777.47	3.02	0.2
2777.54	3.04	0.2
2778.47	3.03	0.2
2779.04	2.99	0.2
2779.08	2.93	0.2
2779.99	2.88	0.2
2780.48	2.86	0.2
2781.25	2.87	0.2
2782.08	2.91	0.2
2782.54	2.96	0.2
2783.6	3.01	0.2
2784.59	3.03	0.2
2784.96	3.03	0.2
2785.39	3.01	0.2
2786.04	2.99	0.2
2786.13	2.97	0.2
2788.3	2.98	0.2
2789.25	3.01	0.2
2789.82	3.05	0.2
2789.9	3.08	0.2
2790.84	3.1	0.2
2791.14	3.09	0.2
2792.46	3.07	0.2
2793.28	3.05	0.2
2793.67	3.03	0.2
2794.98	3.04	0.2
2795.08	3.07	0.2
2795.67	3.13	0.2
2795.73	3.2	0.2
2797.44	3.27	0.2
2797.52	3.31	0.2
2797.71	3.32	0.2
2798.18	3.31	0.2
2798.88	3.3	0.2
2800.34	3.3	0.2
2800.63	3.31	0.2
2801.21	3.35	0.2
2801.34	3.39	0.2
2801.44	3.42	0.2
2803.08	3.44	0.2
2804.21	3.44	0.2
2804.29	3.41	0.2
2804.98	3.37	0.2
2805.3	3.33	0.2
2805.58	3.3	0.2
2806.26	3.29	0.2
2807.33	3.3	0.2
2807.87	3.33	0.2
2808.64	3.36	0.2
2808.69	3.36	0.2
2809.02	3.33	0.2
2811.21	3.3	0.2
2811.88	3.27	0.2
2812.17	3.25	0.2
2812.54	3.24	0.2
2812.77	3.25	0.2
2814.13	3.29	0.2
2815.32	3.34	0.2
2816.45	3.39	0.2
2816.53	3.41	0.2
2817.4	3.335	0.2
2819.23	3.22	0.2
2820.36	3.14	0.2
2820.79	3.08	0.2
2821.75	3.02	0.2
2823.56	2.96	0.2
2824.27	2.9	0.2
2824.34	2.86	0.2
2826.1	2.85	0.2
2826.85	2.86	0.2
2828.17	2.89	0.2
2829.45	2.93	0.2
2829.7	2.96	0.2
2830.45	2.98	0.2
2831.79	3	0.2
2832.05	3.04	0.2
2833.5	3.08	0.2
2833.65	3.12	0.2
2834.34	3.15	0.2
2834.35	3.16	0.2
2835.88	3.14	0.2
2836.21	3.11	0.2
2836.64	3.09	0.2
2836.84	3.08	0.2
2838.76	3.1	0.2
2839.34	3.13	0.2
2841.11	3.15	0.2
2841.32	3.14	0.2
2841.59	3.13	0.2
2842.09	3.12	0.2
2842.5	3.14	0.2
2843.88	3.17	0.2
2844.11	3.22	0.2
2844.33	3.25	0.2
2845.5	3.27	0.2
2846.34	3.27	0.2
2846.43	3.24	0.2
2846.58	3.21	0.2
2846.63	3.2	0.2
2848.5	3.2	0.2
2848.99	3.24	0.2
2849.15	3.28	0.2
2849.58	3.32	0.2
2851.5	3.34	0.2
2851.58	3.35	0.2
2851.59	3.34	0.2
2851.67	3.32	0.2
2851.82	3.29	0.2
2854.43	3.24	0.2
2854.59	3.19	0.2
2854.84	3.13	0.2
2854.97	3.09	0.2
2855	3.07	0.2
2857.95	3.08	0.2
2858.09	3.11	0.2
2858.56	3.14	0.2
2859	3.15	0.2
2859.51	3.12	0.2
2861.31	3.06	0.2
2861.42	3.01	0.2
2861.54	2.99	0.2
2862.28	3	0.2
2863	3.02	0.2
2864.75	3.04	0.2
2864.95	3.05	0.2
2866.01	3.04	0.2
2867	3.02	0.2
2868.03	3	0.2
2868.07	2.99	0.2
2869.48	2.97	0.2
2869.73	2.97	0.2
2870.74	2.97	0.2
2871	2.98	0.2
2871.39	3	0.2
2873.37	3.02	0.2
2873.82	3.03	0.2
2874.54	3.05	0.2
2874.63	3.08	0.2
2875	3.12	0.2
2876.4	3.17	0.2
2877.51	3.2	0.2
2877.58	3.22	0.2
2877.88	3.22	0.2
2878.48	3.23	0.2
2879.43	3.25	0.2
2881.2	3.27	0.2
2881.96	3.28	0.2
2882.46	3.29	0.2
2883.67	3.29	0.2
2884.4	3.3	0.2
2884.89	3.31	0.2
2885.45	3.33	0.2
2885.49	3.33	0.2
2888.5	3.32	0.2
2888.53	3.3	0.2
2888.87	3.26	0.2
2890.78	3.22	0.2
2891.47	3.18	0.2
2891.76	3.14	0.2
2892.3	3.12	0.2
2893.55	3.11	0.2
2893.93	3.13	0.2
2894.24	3.16	0.2
2894.44	3.19	0.2
2894.95	3.22	0.2
2895.61	3.22	0.2
2897.01	3.21	0.2
2897.07	3.2	0.2
2897.42	3.18	0.2
2898.14	3.16	0.2
2898.98	3.13	0.2
2900.22	3.09	0.2
2901.33	3.06	0.2
2903.36	3.03	0.2
2903.37	3.01	0.2
2904.55	3.01	0.2
2905.94	3.01	0.2
2906.47	3.02	0.2
2906.67	3.04	0.2
2907.93	3.04	0.2
2909.38	3.04	0.2
2909.62	3.04	0.2
2910	3.04	0.2
2911.31	3.05	0.2
2912.16	3.06	0.2
2912.76	3.08	0.2
2912.9	3.09	0.2
2913.33	3.08	0.2
2914.67	3.06	0.2
2915.28	3.04	0.2
2915.75	3.03	0.2
2916.07	3.02	0.2
2916.67	3.03	0.2
2918	3.04	0.2
2918.6	3.04	0.2
2919.4	3.03	0.2
2920	3.04	0.2
2921.33	3.07	0.2
2921.44	3.11	0.2
2922.73	3.17	0.2
2924.31	3.23	0.2
2924.71	3.28	0.2
2926.2	3.32	0.2
2926.84	3.34	0.2
2927.34	3.36	0.2
2928.26	3.36	0.2
2929.68	3.35	0.2
2929.75	3.34	0.2
2930.37	3.32	0.2
2931.81	3.29	0.2
2933.23	3.26	0.2
2933.4	3.23	0.2
2934.59	3.19	0.2
2936.14	3.16	0.2
2936.59	3.11	0.2
2936.76	3.05	0.2
2937.48	2.99	0.2
2939.81	2.95	0.2
2940.15	2.9	0.2
2940.67	2.85	0.2
2941.03	2.81	0.2
2941.17	2.77	0.2
2943.03	2.73	0.2
2943.53	2.73	0.2
2944.46	2.75	0.2
2944.58	2.78	0.2
2945.19	2.81	0.2
2946.45	2.81	0.2
2947.69	2.8	0.2
2948.06	2.78	0.2
2949.6	2.76	0.2
2950.17	2.74	0.2
2951.5	2.72	0.2
2953.11	2.72	0.2
2953.45	2.73	0.2
2954.01	2.75	0.2
2954.07	2.78	0.2
2954.94	2.81	0.2
2956.73	2.84	0.2
2957.25	2.86	0.2
2957.5	2.87	0.2
2957.62	2.87	0.2
2958.37	2.86	0.2
2959.39	2.85	0.2
2960.06	2.84	0.2
2960.44	2.84	0.2
2960.57	2.86	0.2
2961.81	2.88	0.2
2961.87	2.89	0.2
2962.39	2.91	0.2
2963.51	2.93	0.2
2964.56	2.96	0.2
2965.37	3	0.2
2966.46	3.05	0.2
2966.71	3.1	0.2
2966.81	3.15	0.2
2968	3.2	0.2
2969.04	3.23	0.2
2969.66	3.26	0.2
2970.42	3.27	0.2
2973.16	3.27	0.2
2973.19	3.26	0.2
2976.15	3.24	0.2
2976.65	3.21	0.2
2976.96	3.2	0.2
2978.25	3.2	0.2
2978.3	3.22	0.2
2980.11	3.23	0.2
2980.39	3.25	0.2
2980.66	3.26	0.2
2981.66	3.26	0.2
2981.85	3.25	0.2
2982.07	3.22	0.2
2984.76	3.17	0.2
2985.21	3.12	0.2
2985.5	3.07	0.2
2985.96	3.02	0.2
2986.37	2.99	0.2
2986.63	2.97	0.2
2987.85	2.97	0.2
2989.76	2.99	0.2
2990.68	3.01	0.2
2990.95	3.05	0.2
2991.41	3.06	0.2
2992	3.06	0.2
2993.63	3.04	0.2
2993.96	3.01	0.2
2994.06	2.99	0.2
2994.29	2.99	0.2
2994.95	3	0.2
2994.96	3.02	0.2
2996.58	3.05	0.2
2997.05	3.09	0.2
2997.24	3.14	0.2
2998.32	3.19	0.2
3000.18	3.24	0.2
3000.51	3.29	0.2
3001.69	3.34	0.2
3003.02	3.38	0.2
3003.78	3.42	0.2
3004.11	3.43	0.2
3005.74	3.44	0.2
3007.05	3.45	0.2
3007.92	3.46	0.2
3008.04	3.47	0.2
3008.43	3.48	0.2
3010.33	3.48	0.2
3010.65	3.47	0.2
3010.76	3.45	0.2
3011.8	3.43	0.2
3013.59	3.42	0.2
3015.18	3.4	0.2
3016.43	3.39	0.2
3017.35	3.38	0.2
3017.87	3.38	0.2
3018.18	3.38	0.2
3020.15	3.37	0.2
3021.25	3.37	0.2
3022.09	3.35	0.2
3023.32	3.34	0.2
3024.07	3.32	0.2
3024.62	3.3	0.2
3024.93	3.28	0.2
3027.02	3.26	0.2
3027.88	3.24	0.2
3027.99	3.19	0.2
3030.2	3.14	0.2
3031.14	3.07	0.2
3031.29	3.01	0.2
3032.1	2.97	0.2
3033.34	2.93	0.2
3034.69	2.91	0.2
3034.91	2.9	0.2
3038.09	2.9	0.2
3038.47	2.92	0.2
3039.63	2.96	0.2
3041.2	3.02	0.2
3041.49	3.07	0.2
3042.13	3.1	0.2
3042.77	3.11	0.2
3044.34	3.1	0.2
3044.9	3.09	0.2
3045.79	3.09	0.2
3045.91	3.12	0.2
3047.49	3.17	0.2
3048.3	3.23	0.2
3049.06	3.28	0.2
3049.45	3.32	0.2
3051.45	3.34	0.2
3052.72	3.33	0.2
3052.75	3.31	0.2
3053.71	3.26	0.2
3054.35	3.19	0.2
3055.5	3.11	0.2
3055.92	3.03	0.2
3057.25	2.98	0.2
3057.98	2.94	0.2
3059.12	2.93	0.2
3059.84	2.94	0.2
3060.14	2.94	0.2
3060.72	2.94	0.2
3062.32	2.94	0.2
3063.04	2.94	0.2
3063.75	2.93	0.2
3065.52	2.93	0.2
3065.94	2.93	0.2
3066.5	2.94	0.2
3068.72	2.97	0.2
3068.84	3	0.2
3069.05	3.04	0.2
3069.25	3.06	0.2
3071.45	3.06	0.2
3071.85	3.05	0.2
3072.25	3.03	0.2
3074.57	2.99	0.2
3075.97	2.95	0.2
3076.17	2.91	0.2
3076.44	2.88	0.2
3078.11	2.85	0.2
3078.6	2.82	0.2
3080.15	2.79	0.2
3080.44	2.77	0.2
3081.9	2.77	0.2
3082.29	2.79	0.2
3084.2	2.82	0.2
3084.42	2.85	0.2
3086.16	2.88	0.2
3088	2.925	0.2
3089.67	2.97	0.2
3089.96	2.99	0.2
3091.58	3	0.2
3091.8	3	0.2
3093	2.98	0.2
3093.76	2.96	0.2
3095.16	2.94	0.2
3095.6	2.92	0.2
3096.33	2.92	0.2
3097.57	2.93	0.2
3098.74	2.95	0.2
3099.39	2.97	0.2
3099.67	2.99	0.2
3101.37	2.99	0.2
3102	2.99	0.2
3102.32	2.97	0.2
3103.19	2.95	0.2
3105.17	2.94	0.2
3106.33	2.92	0.2
3106.99	2.91	0.2
3107.75	2.9	0.2
3109.33	2.91	0.2
3110.79	2.94	0.2
3112.32	2.98	0.2
3112.78	2.99	0.2
3113	2.99	0.2
3113.82	2.99	0.2
3114.2	2.97	0.2
3115.78	2.97	0.2
3116.1	2.97	0.2
3116.33	2.98	0.2
3116.58	2.98	0.2
3118	2.98	0.2
3119.25	2.97	0.2
3119.67	2.98	0.2
3121.5	2.99	0.2
3122.37	3.02	0.2
3123	3.06	0.2
3123.82	3.08	0.2
3124.22	3.1	0.2
3125.33	3.12	0.2
3126.33	3.13	0.2
3126.95	3.13	0.2
3127.3	3.13	0.2
3128.29	3.13	0.2
3129	3.13	0.2
3129.67	3.14	0.2
3130.78	3.17	0.2
3131.25	3.19	0.2
3132.26	3.19	0.2
3132.31	3.19	0.2
3133.73	3.19	0.2
3133.77	3.19	0.2
3134.45	3.19	0.2
3135.4	3.2	0.2
3136.06	3.22	0.2
3136.5	3.24	0.2
3136.6	3.26	0.2
3138.02	3.26	0.2
3138.38	3.26	0.2
3138.74	3.25	0.2
3139.24	3.24	0.2
3140.12	3.22	0.2
3140.64	3.21	0.2
3140.7	3.2	0.2
3140.88	3.2	0.2
3141.97	3.19	0.2
3143.03	3.16	0.2
3143.36	3.13	0.2
3145.36	3.13	0.2
3146.55	3.13	0.2
3146.59	3.12	0.2
3147	3.07	0.2
3149.15	3	0.2
3149.63	2.9	0.2
3150.35	2.82	0.2
3150.64	2.78	0.2
3152.58	2.76	0.2
3152.95	2.76	0.2
3154.12	2.76	0.2
3155.29	2.75	0.2
3155.98	2.75	0.2
3156.63	2.74	0.2
3156.95	2.74	0.2
3157.22	2.73	0.2
3157.94	2.71	0.2
3158.3	2.68	0.2
3158.6	2.66	0.2
3158.67	2.67	0.2
3159.02	2.69	0.2
3159.88	2.72	0.2
3160.25	2.76	0.2
3160.71	2.78	0.2
3161.46	2.79	0.2
3161.93	2.8	0.2
3162.35	2.8	0.2
3162.61	2.79	0.2
3162.76	2.79	0.2
3163.04	2.78	0.2
3163.58	2.79	0.2
3164.39	2.81	0.2
3164.61	2.84	0.2
3165.49	2.87	0.2
3168.04	2.88	0.2
3168.16	2.88	0.2
3168.66	2.88	0.2
3168.91	2.89	0.2
3171.78	2.92	0.2
3172.37	2.96	0.2
3172.39	2.99	0.2
3173.26	3	0.2
3174.9	2.99	0.2
3176.39	2.98	0.2
3176.54	2.97	0.2
3177.31	2.96	0.2
3177.7	2.94	0.2
3180.11	2.9	0.2
3180.38	2.86	0.2
3180.46	2.81	0.2
3181.15	2.77	0.2
3183.22	2.75	0.2
3183.84	2.74	0.2
3184.23	2.74	0.2
3187.3	2.75	0.2
3188.16	2.77	0.2
3188.96	2.79	0.2
3189.08	2.8	0.2
3190.71	2.82	0.2
3192.12	2.83	0.2
3192.13	2.83	0.2
3192.91	2.83	0.2
3194.11	2.84	0.2
3195.15	2.85	0.2
3196.08	2.86	0.2
3197.51	2.86	0.2
3198.18	2.84	0.2
3200.03	2.79	0.2
3200.82	2.73	0.2
3200.92	2.68	0.2
3204.22	2.66	0.2
3204.3	2.67	0.2
3204.78	2.7	0.2
3207.24	2.75	0.2
3207.94	2.8	0.2
3211	2.85	0.2
3211.9	2.88	0.2
3212.69	2.89	0.2
3212.92	2.9	0.2
3214.34	2.89	0.2
3214.45	2.88	0.2
3215.39	2.86	0.2
3215.86	2.82	0.2
3216.65	2.79	0.2
3217.87	2.77	0.2
3218.23	2.78	0.2
3219.81	2.83	0.2
3220.34	2.88	0.2
3221.03	2.9	0.2
3221.79	2.91	0.2
3222.95	2.92	0.2
3223.33	2.94	0.2
3223.55	2.95	0.2
3224.46	2.95	0.2
3225.64	2.94	0.2
3226.56	2.93	0.2
3227.18	2.91	0.2
3227.33	2.91	0.2
3227.98	2.91	0.2
3229.48	2.93	0.2
3230.67	2.96	0.2
3230.82	2.99	0.2
3231.49	3	0.2
3233.32	3	0.2
3233.75	3.01	0.2
3234	3.01	0.2
3234.45	3.02	0.2
3235.01	3.02	0.2
3237.17	3	0.2
3237.33	2.97	0.2
3238.22	2.95	0.2
3238.45	2.93	0.2
3240.15	2.92	0.2
3240.37	2.91	0.2
3240.39	2.91	0.2
3240.67	2.91	0.2
3241.26	2.91	0.2
3242.45	2.9	0.2
3242.72	2.89	0.2
3242.88	2.87	0.2
3243.04	2.85	0.2
3243.49	2.83	0.2
3244.78	2.81	0.2
3245.42	2.79	0.2
3245.69	2.77	0.2
3246.01	2.77	0.2
3247.05	2.76	0.2
3247.96	2.76	0.2
3248.34	2.77	0.2
3248.7	2.78	0.2
3248.88	2.79	0.2
3249.08	2.81	0.2
3249.34	2.84	0.2
3250.47	2.88	0.2
3250.93	2.93	0.2
3250.99	2.99	0.2
3251.18	3.04	0.2
3251.64	3.08	0.2
3252.44	3.1	0.2
3252.98	3.12	0.2
3253.01	3.13	0.2
3253.48	3.13	0.2
3253.64	3.13	0.2
3255.23	3.13	0.2
3255.54	3.15	0.2
3256.24	3.18	0.2
3256.29	3.21	0.2
3257.09	3.24	0.2
3258.03	3.25	0.2
3258.54	3.24	0.2
3258.89	3.22	0.2
3259.05	3.2	0.2
3260.49	3.19	0.2
3261.24	3.18	0.2
3261.25	3.18	0.2
3262.15	3.17	0.2
3263.08	3.17	0.2
3263.92	3.15	0.2
3264.06	3.14	0.2
3265.67	3.11	0.2
3266.24	3.09	0.2
3266.45	3.06	0.2
3266.88	3.05	0.2
3267.78	3.05	0.2
3268.33	3.07	0.2
3270.3	3.09	0.2
3271.5	3.11	0.2
3271.61	3.11	0.2
3272.14	3.11	0.2
3273.07	3.11	0.2
3274.03	3.11	0.2
3274.34	3.13	0.2
3274.89	3.15	0.2
3275.31	3.17	0.2
3275.76	3.18	0.2
3276.71	3.18	0.2
3278.17	3.18	0.2
3278.35	3.19	0.2
3279.48	3.22	0.2
3280.94	3.27	0.2
3281.45	3.32	0.2
3282.24	3.38	0.2
3283.52	3.42	0.2
3283.75	3.46	0.2
3284.73	3.48	0.2
3285.01	3.52	0.2
3286.2	3.56	0.2
3287.04	3.62	0.2
3287.29	3.68	0.2
3288.92	3.72	0.2
3289.26	3.74	0.2
3290.96	3.75	0.2
3292.21	3.76	0.2
3293.82	3.78	0.2
3295.47	3.8	0.2
3295.66	3.82	0.2
3297.39	3.83	0.2
3297.78	3.82	0.2
3298.73	3.79	0.2
3299.64	3.75	0.2
3302.57	3.7	0.2
3303.03	3.66	0.2
3303.1	3.63	0.2
3303.63	3.61	0.2
3303.8	3.6	0.2
3306.83	3.6	0.2
3307.23	3.59	0.2
3307.55	3.58	0.2
3308.54	3.55	0.2
3310.55	3.51	0.2
3312.13	3.47	0.2
3312.41	3.42	0.2
3313.45	3.37	0.2
3314.27	3.32	0.2
3315.89	3.27	0.2
3317.59	3.23	0.2
3317.67	3.19	0.2
3318.74	3.14	0.2
3320.67	3.1	0.2
3320.75	3.05	0.2
3321.33	3.01	0.2
3321.6	2.97	0.2
3323.33	2.93	0.2
3323.47	2.91	0.2
3323.91	2.92	0.2
3324.46	2.96	0.2
3326.7	3.02	0.2
3327.78	3.08	0.2
3329.18	3.12	0.2
3331.67	3.15	0.2
3331.8	3.16	0.2
3333.09	3.16	0.2
3334.16	3.15	0.2
3335.8	3.15	0.2
3337.86	3.15	0.2
3339.31	3.16	0.2
3339.85	3.16	0.2
3341.99	3.16	0.2
3342.1	3.15	0.2
3342.38	3.14	0.2
3344.67	3.12	0.2
3346.34	3.11	0.2
3347.35	3.11	0.2
3350.03	3.1	0.2
3350.59	3.09	0.2
3352.71	3.06	0.2
3354.83	3.03	0.2
3355.39	2.99	0.2
3358.52	2.95	0.2
3358.7	2.91	0.2
3361.79	2.87	0.2
3362.17	2.85	0.2
3365.05	2.85	0.2
3366.03	2.89	0.2
3368.32	2.95	0.2
3369.89	3.02	0.2
3371.58	3.08	0.2
3373.74	3.12	0.2
3377.6	3.13	0.2
3378.11	3.13	0.2
3381.38	3.12	0.2
3381.46	3.1	0.2
3384.85	3.08	0.2
3385.16	3.04	0.2
3388.52	3	0.2
3392.18	2.96	0.2
3392.71	2.92	0.2
3395.85	2.89	0.2
3399.7	2.85	0.2
3400.93	2.81	0.2
3403.55	2.78	0.2
3405.44	2.75	0.2
3407.4	2.72	0.2
3411.6	2.69	0.2
3413.83	2.68	0.2
3415.42	2.66	0.2
3416.04	2.66	0.2
3419.07	2.67	0.2
3419.99	2.7	0.2
3422.59	2.73	0.2
3422.96	2.77	0.2
3425.92	2.8	0.2
3426.11	2.81	0.2
3428.88	2.8	0.2
3429.63	2.78	0.2
3432.2	2.74	0.2
3433.83	2.71	0.2
3435.53	2.69	0.2
3438.19	2.68	0.2
3438.87	2.69	0.2
3442.75	2.72	0.2
3443.19	2.76	0.2
3448.65	2.79	0.2
3450.85	2.81	0.2
3457.94	2.82	0.2
3460.61	2.84	0.2
3462.41	2.85	0.2
3463.71	2.87	0.2
3466.69	2.87	0.2
3469.94	2.86	0.2
3470.67	2.83	0.2
3473.61	2.78	0.2
3475.18	2.74	0.2
3477.38	2.69	0.2
3479.73	2.67	0.2
3481.15	2.66	0.2
3484.96	2.67	0.2
3488.8	2.68	0.2
3490.23	2.7	0.2
3495.94	2.71	0.2
3496.48	2.71	0.2
3500.32	2.71	0.2
3501.66	2.71	0.2
3504.16	2.72	0.2
3506.79	2.74	0.2
3508	2.76	0.2
3511.67	2.78	0.2
3511.85	2.79	0.2
3515.2	2.79	0.2
3518.34	2.78	0.2
3519.9	2.76	0.2
3521.48	2.75	0.2
3524.1	2.73	0.2
3528.22	2.73	0.2
3528.88	2.72	0.2
3531.61	2.72	0.2
3533.67	2.73	0.2
3539.63	2.76	0.2
3542.58	2.8	0.2
3543.44	2.84	0.2
3545.71	2.88	0.2
3545.97	2.9	0.2
3549.46	2.91	0.2
3550.63	2.91	0.2
3550.7	2.89	0.2
3553.35	2.87	0.2
3555.73	2.83	0.2
3556.88	2.78	0.2
3557.92	2.73	0.2
3560.4	2.69	0.2
3563.8	2.67	0.2
3565.14	2.66	0.2
3568.3	2.67	0.2
3574.18	2.68	0.2
3574.95	2.7	0.2
3575.21	2.72	0.2
3578.67	2.74	0.2
3579.85	2.77	0.2
3582.13	2.79	0.2
3584.75	2.8	0.2
3585.62	2.8	0.2
3588.86	2.8	0.2
3589.04	2.78	0.2
3593.29	2.75	0.2
3595.34	2.71	0.2
3597.54	2.67	0.2
3597.61	2.64	0.2
3598.58	2.62	0.2
3600.85	2.6	0.2
3601.79	2.59	0.2
3601.82	2.58	0.2
3604.09	2.59	0.2
3605.06	2.61	0.2
3610.29	2.67	0.2
3612.22	2.74	0.2
3615.98	2.83	0.2
3617.47	2.9	0.2
3619.74	2.96	0.2
3620.56	3	0.2
3624.12	3.02	0.2
3624.17	3.04	0.2
3627.8	3.05	0.2
3628.94	3.06	0.2
3633.71	3.07	0.2
3635.16	3.06	0.2
3638.49	3.03	0.2
3642.69	2.98	0.2
3643.47	2.92	0.2
3646.55	2.87	0.2
3648.48	2.83	0.2
3653.12	2.82	0.2
3656.13	2.83	0.2
3656.78	2.85	0.2
3660.92	2.87	0.2
3662.15	2.89	0.2
3664.46	2.92	0.2
3667.6	2.95	0.2
3670.73	2.99	0.2
3671.19	3.04	0.2
3674.03	3.06	0.2
3674.2	3.06	0.2
3677.65	3.03	0.2
3679.44	2.97	0.2
3681.24	2.9	0.2
3684.83	2.83	0.2
3685.05	2.77	0.2
3688.12	2.72	0.2
3689.77	2.7	0.2
3691.25	2.69	0.2
3693.93	2.7	0.2
3694.39	2.72	0.2
3697.53	2.74	0.2
3698.09	2.76	0.2
3700.66	2.78	0.2
3702.26	2.8	0.2
3703.8	2.82	0.2
3706.42	2.85	0.2
3706.94	2.87	0.2
3710.07	2.9	0.2
3713.21	2.94	0.2
3714.75	2.96	0.2
3716.39	2.97	0.2
3717.5	2.96	0.2
3719.5	2.92	0.2
3721.08	2.87	0.2
3724.5	2.82	0.2
3724.66	2.78	0.2
3728.24	2.77	0.2
3729.51	2.78	0.2
3738.98	2.82	0.2
3742.56	2.85	0.2
3745.28	2.88	0.2
3746.13	2.9	0.2
3749.36	2.91	0.2
3750.08	2.91	0.2
3755.6	2.9	0.2
3759.22	2.87	0.2
3759.57	2.84	0.2
3762.91	2.81	0.2
3765.28	2.79	0.2
3766.61	2.78	0.2
3770.3	2.77	0.2
3771	2.76	0.2
3773.99	2.76	0.2
3776.71	2.76	0.2
3777.69	2.76	0.2
3782.43	2.78	0.2
3785.08	2.81	0.2
3788.14	2.84	0.2
3788.8	2.86	0.2
3792.51	2.87	0.2
3794.56	2.86	0.2
3796.22	2.84	0.2
3799.76	2.81	0.2
3802.79	2.78	0.2
3805.83	2.77	0.2
3805.95	2.75	0.2
3807.01	2.75	0.2
3808.79	2.75	0.2
3810.69	2.76	0.2
3811.54	2.76	0.2
3811.57	2.75	0.2
3814.35	2.74	0.2
3814.97	2.73	0.2
3815.82	2.72	0.2
3817.13	2.72	0.2
3819.27	2.73	0.2
3819.99	2.76	0.2
3820.2	2.8	0.2
3823.03	2.87	0.2
3823.37	2.94	0.2
3826.06	3.02	0.2
3829.1	3.06	0.2
3831.28	3.08	0.2
3832.02	3.06	0.2
3834.75	3.02	0.2
3835.01	2.98	0.2
3838.8	2.94	0.2
3840.22	2.91	0.2
3843.16	2.89	0.2
3843.66	2.89	0.2
3848.66	2.91	0.2
3854.62	2.94	0.2
3861.35	2.98	0.2
3864.85	3.01	0.2
3866.21	3.05	0.2
3868.29	3.09	0.2
3871.05	3.11	0.2
3871.74	3.11	0.2
3875.17	3.07	0.2
3875.86	3	0.2
3878.49	2.93	0.2
3880.53	2.87	0.2
3881.81	2.83	0.2
3885.21	2.81	0.2
3888.46	2.8	0.2
3889.88	2.79	0.2
3891.78	2.78	0.2
3894.56	2.77	0.2
3895.1	2.76	0.2
3898.43	2.75	0.2
3899.23	2.74	0.2
3901.75	2.73	0.2
3904.05	2.72	0.2
3905.68	2.73	0.2
3913.87	2.75	0.2
3914.72	2.79	0.2
3916.78	2.85	0.2
3918.6	2.92	0.2
3919.69	2.97	0.2
3922.6	3.01	0.2
3925.53	3.01	0.2
3926.47	2.97	0.2
3928.46	2.92	0.2
3929.3	2.86	0.2
3931.39	2.8	0.2
3933.35	2.74	0.2
3934.33	2.68	0.2
3936.34	2.65	0.2
3937.55	2.63	0.2
3938.87	2.64	0.2
3941.41	2.68	0.2
3943.13	2.73	0.2
3943.95	2.77	0.2
3946.05	2.79	0.2
3947.62	2.79	0.2
3948.27	2.77	0.2
3950.18	2.74	0.2
3952.34	2.7	0.2
3952.74	2.68	0.2
3955.31	2.66	0.2
3956.38	2.66	0.2
3957.87	2.67	0.2
3960.16	2.69	0.2
3963	2.71	0.2
3963.95	2.73	0.2
3965.57	2.74	0.2
3968.44	2.74	0.2
3968.61	2.74	0.2
3971.69	2.74	0.2
3973.15	2.74	0.2
3974.77	2.76	0.2
3977.4	2.78	0.2
3977.86	2.8	0.2
3980.94	2.81	0.2
3981.6	2.82	0.2
3984.27	2.84	0.2
3987.75	2.86	0.2
3988.33	2.89	0.2
3990.01	2.91	0.2
3991.23	2.91	0.2
3998.42	2.89	0.2
4001.67	2.86	0.2
4003.05	2.8	0.2
4005.15	2.75	0.2
4006.83	2.7	0.2
4007.67	2.67	0.2
4008.63	2.67	0.2
4011.6	2.68	0.2
4014.24	2.7	0.2
4014.62	2.71	0.2
4017.68	2.72	0.2
4019.45	2.73	0.2
4021.2	2.73	0.2
4023.16	2.75	0.2
4025.46	2.77	0.2
4026.87	2.81	0.2
4029.66	2.85	0.2
4030.45	2.9	0.2
4033.57	2.95	0.2
4033.85	2.98	0.2
4039.17	3	0.2
4042.53	2.99	0.2
4043.35	2.96	0.2
4045.9	2.92	0.2
4049.26	2.88	0.2
4049.43	2.86	0.2
4052.63	2.85	0.2
4055.52	2.85	0.2
4059.36	2.86	0.2
4061.59	2.87	0.2
4062.67	2.89	0.2
4065.94	2.9	0.2
4071.68	2.9	0.2
4075.75	2.9	0.2
4076.72	2.9	0.2
4079.02	2.9	0.2
4081.76	2.9	0.2
4082.29	2.9	0.2
4085.56	2.9	0.2
4088.83	2.89	0.2
4091.85	2.89	0.2
4092.75	2.89	0.2
4095.39	2.88	0.2
4096.9	2.88	0.2
4098.86	2.86	0.2
4101.69	2.84	0.2
4102.34	2.83	0.2
4105.81	2.83	0.2
4106.37	2.84	0.2
4108.62	2.85	0.2
4110.18	2.86	0.2
4111.38	2.87	0.2
4119.36	2.86	0.2
4121.02	2.83	0.2
4124.75	2.8	0.2
4125.52	2.77	0.2
4131.97	2.76	0.2
4132.52	2.75	0.2
4136.47	2.76	0.2
4138.57	2.78	0.2
4140.54	2.8	0.2
4144.63	2.81	0.2
4145.33	2.81	0.2
4148.16	2.79	0.2
4149.02	2.77	0.2
4150.91	2.76	0.2
4151.22	2.75	0.2
4153.42	2.75	0.2
4153.67	2.74	0.2
4155.62	2.73	0.2
4156.42	2.71	0.2
4157.83	2.69	0.2
4159.17	2.68	0.2
4160.03	2.68	0.2
4161.59	2.69	0.2
4163.85	2.7	0.2
4166.48	2.69	0.2
4168.39	2.69	0.2
4168.63	2.69	0.2
4170.65	2.69	0.2
4170.78	2.7	0.2
4172.93	2.71	0.2
4173.01	2.73	0.2
4175.7	2.75	0.2
4176.97	2.77	0.2
4178.76	2.79	0.2
4182.16	2.81	0.2
4182.31	2.83	0.2
4185.56	2.85	0.2
4187.47	2.86	0.2
4190.75	2.86	0.2
4191.21	2.84	0.2
4194.96	2.81	0.2
4197.89	2.77	0.2
4198.65	2.74	0.2
4200.08	2.71	0.2
4204.45	2.7	0.2
4205.52	2.68	0.2
4206.63	2.68	0.2
4208.77	2.68	0.2
4208.81	2.69	0.2
4211.99	2.7	0.2
4212.45	2.69	0.2
4215.11	2.67	0.2
4218.03	2.66	0.2
4220.02	2.66	0.2
4221.07	2.69	0.2
4224.4	2.73	0.2
4226.08	2.77	0.2
4227.73	2.8	0.2
4229.53	2.83	0.2
4230.77	2.83	0.2
4231.13	2.84	0.2
4233.26	2.83	0.2
4235.39	2.82	0.2
4235.8	2.81	0.2
4238.33	2.79	0.2
4241.26	2.79	0.2
4242.64	2.78	0.2
4242.99	2.78	0.2
4244.71	2.79	0.2
4246.09	2.82	0.2
4248.17	2.86	0.2
4248.8	2.89	0.2
4251.58	2.91	0.2
4252.9	2.9	0.2
4256.12	2.86	0.2
4260.94	2.83	0.2
4260.95	2.81	0.2
4264.14	2.81	0.2
4265.49	2.82	0.2
4267.5	2.84	0.2
4274.21	2.85	0.2
4278.07	2.84	0.2
4278.85	2.8	0.2
4282.1	2.75	0.2
4283.9	2.725	0.2
4288.79	2.73	0.2
4289.81	2.75	0.2
4292.36	2.755	0.2
4293.67	2.75	0.2
4295.94	2.75	0.2
4301.25	2.76	0.2
4303.08	2.75	0.2
4305.58	2.73	0.2
4308.08	2.69	0.2
4310.58	2.67	0.2
4313.05	2.66	0.2
4316.58	2.67	0.2
4321.87	2.7	0.2
4324.51	2.73	0.2
4328.81	2.76	0.2
4336.55	2.77	0.2
4338.68	2.77	0.2
4341.77	2.74	0.2
4344.59	2.72	0.2
4346.61	2.68	0.2
4348	2.65	0.2
4350.82	2.62	0.2
4351.22	2.6	0.2
4354.44	2.59	0.2
4355.04	2.61	0.2
4357.39	2.64	0.2
4358.83	2.68	0.2
4360.29	2.72	0.2
4361.94	2.76	0.2
4362.63	2.79	0.2
4363.19	2.82	0.2
4364.84	2.84	0.2
4365.71	2.86	0.2
4366.16	2.88	0.2
4366.5	2.9	0.2
4369.15	2.92	0.2
4370.72	2.94	0.2
4371.06	2.94	0.2
4371.4	2.93	0.2
4374.39	2.91	0.2
4375.61	2.89	0.2
4375.97	2.88	0.2
4376.65	2.87	0.2
4379.64	2.86	0.2
4380.16	2.84	0.2
4381.21	2.81	0.2
4381.9	2.78	0.2
4384.72	2.75	0.2
4384.89	2.75	0.2
4386.46	2.77	0.2
4387.14	2.81	0.2
4389.27	2.84	0.2
4390.13	2.86	0.2
4391.6	2.87	0.2
4391.71	2.87	0.2
4392.39	2.86	0.2
4393.83	2.86	0.2
4395.2	2.84	0.2
4395.38	2.82	0.2
4396.95	2.78	0.2
4397.63	2.74	0.2
4398.38	2.7	0.2
4400.4	2.68	0.2
4400.63	2.67	0.2
4402.2	2.68	0.2
4402.88	2.69	0.2
4402.93	2.72	0.2
4404.4	2.75	0.2
4405.87	2.78	0.2
4406.59	2.81	0.2
4406.92	2.82	0.2
4407.49	2.82	0.2
4408.13	2.79	0.2
4408.4	2.75	0.2
4411.12	2.7	0.2
4412.04	2.66	0.2
4412.17	2.63	0.2
4413.19	2.62	0.2
4413.37	2.6	0.2
4416.38	2.58	0.2
4416.62	2.56	0.2
4417.48	2.55	0.2
4418.75	2.57	0.2
4419.36	2.58	0.2
4421.4	2.6	0.2
4421.89	2.61	0.2
4422.72	2.63	0.2
4422.99	2.65	0.2
4424.26	2.66	0.2
4426.08	2.66	0.2
4426.18	2.65	0.2
4426.64	2.63	0.2
4427.4	2.62	0.2
4428.5	2.63	0.2
4429.77	2.65	0.2
4429.86	2.67	0.2
4430.96	2.69	0.2
4432.91	2.71	0.2
4433.37	2.73	0.2
4435.28	2.74	0.2
4435.32	2.75	0.2
4435.75	2.76	0.2
4437.62	2.77	0.2
4438.26	2.77	0.2
4438.84	2.77	0.2
4439.19	2.75	0.2
4439.52	2.72	0.2
4439.67	2.69	0.2
4439.7	2.68	0.2
4441.8	2.69	0.2
4441.95	2.71	0.2
4442.94	2.75	0.2
4443.64	2.78	0.2
4445.32	2.8	0.2
4445.4	2.82	0.2
4445.88	2.84	0.2
4446.35	2.85	0.2
4446.73	2.84	0.2
4447.57	2.83	0.2
4447.8	2.82	0.2
4449.77	2.81	0.2
4449.82	2.82	0.2
4450.5	2.83	0.2
4451.51	2.84	0.2
4451.7	2.85	0.2
4453.18	2.85	0.2
4453.75	2.86	0.2
4453.9	2.87	0.2
4455	2.87	0.2
4455.55	2.86	0.2
4456.98	2.84	0.2
4460.44	2.83	0.2
4460.77	2.81	0.2
4461.23	2.81	0.2
4463.2	2.8	0.2
4463.23	2.79	0.2
4463.95	2.77	0.2
4465.33	2.76	0.2
4465.47	2.76	0.2
4465.99	2.76	0.2
4468.12	2.79	0.2
4468.8	2.82	0.2
4469.72	2.84	0.2
4472.15	2.86	0.2
4473.96	2.85	0.2
4475.55	2.83	0.2
4477.36	2.81	0.2
4477.82	2.78	0.2
4478.04	2.75	0.2
4478.17	2.73	0.2
4479.25	2.73	0.2
4480.27	2.74	0.2
4481.57	2.75	0.2
4481.7	2.74	0.2
4483.11	2.72	0.2
4484.1	2.71	0.2
4485.36	2.71	0.2
4485.79	2.74	0.2
4488.25	2.78	0.2
4488.32	2.82	0.2
4488.82	2.85	0.2
4490	2.86	0.2
4492.11	2.84	0.2
4492.45	2.82	0.2
4492.53	2.8	0.2
4492.68	2.79	0.2
4493.71	2.8	0.2
4497.1	2.81	0.2
4497.38	2.82	0.2
4497.75	2.84	0.2
4500.4	2.85	0.2
4502.04	2.85	0.2
4502.85	2.83	0.2
4503.09	2.81	0.2
4503.77	2.78	0.2
4504.38	2.75	0.2
4507.03	2.74	0.2
4508.14	2.74	0.2
4508.61	2.75	0.2
4508.81	2.79	0.2
4511	2.83	0.2
4513.19	2.86	0.2
4513.66	2.88	0.2
4514.36	2.87	0.2
4517.11	2.86	0.2
4517.63	2.85	0.2
4518.25	2.85	0.2
4518.8	2.86	0.2
4519.94	2.86	0.2
4521.26	2.85	0.2
4523.3	2.84	0.2
4524.26	2.84	0.2
4525.33	2.85	0.2
4525.41	2.87	0.2
4526.91	2.89	0.2
4530.59	2.91	0.2
4530.73	2.93	0.2
4530.89	2.95	0.2
4533.41	2.97	0.2
4533.54	2.98	0.2
4535.56	2.98	0.2
4535.88	2.95	0.2
4536.13	2.9	0.2
4537.52	2.86	0.2
4538.46	2.81	0.2
4541.17	2.77	0.2
4541.74	2.74	0.2
4543.16	2.71	0.2
4543.24	2.69	0.2
4544.74	2.67	0.2
4545.36	2.66	0.2
4547.1	2.66	0.2
4547.38	2.68	0.2
4547.94	2.72	0.2
4548.68	2.76	0.2
4550.44	2.78	0.2
4551.04	2.77	0.2
4551.52	2.74	0.2
4552.62	2.71	0.2
4552.86	2.69	0.2
4553.49	2.69	0.2
4554.1	2.7	0.2
4554.94	2.71	0.2
4555.58	2.73	0.2
4556.44	2.74	0.2
4556.48	2.73	0.2
4558.73	2.71	0.2
4559.06	2.69	0.2
4560.05	2.68	0.2
4560.54	2.7	0.2
4562.44	2.74	0.2
4563.45	2.79	0.2
4563.61	2.85	0.2
4563.67	2.89	0.2
4566.19	2.92	0.2
4566.45	2.94	0.2
4567.05	2.97	0.2
4567.3	3.01	0.2
4567.53	3.05	0.2
4568.43	3.1	0.2
4568.96	3.12	0.2
4569.23	3.12	0.2
4569.52	3.09	0.2
4570.27	3.05	0.2
4570.36	3	0.2
4571.34	2.94	0.2
4571.4	2.88	0.2
4571.98	2.83	0.2
4572.06	2.79	0.2
4573.2	2.76	0.2
4573.24	2.76	0.2
4573.72	2.77	0.2
4574.37	2.8	0.2
4574.44	2.82	0.2
4574.9	2.82	0.2
4576.03	2.79	0.2
4576.1	2.75	0.2
4576.91	2.68	0.2
4577.35	2.62	0.2
4577.73	2.58	0.2
4578.59	2.58	0.2
4578.74	2.61	0.2
4579.8	2.695	0.2
4580.89	2.77	0.2
4581.2	2.8	0.2
4581.56	2.82	0.2
4582.62	2.83	0.2
4582.98	2.84	0.2
4583.19	2.84	0.2
4584.52	2.85	0.2
4584.73	2.85	0.2
4586.15	2.85	0.2
4586.16	2.84	0.2
4586.89	2.82	0.2
4587.74	2.8	0.2
4589.21	2.76	0.2
4589.57	2.72	0.2
4590.33	2.68	0.2
4591.5	2.64	0.2
4591.57	2.63	0.2
4592.35	2.62	0.2
4593.67	2.62	0.2
4594.74	2.62	0.2
4595.38	2.63	0.2
4595.65	2.63	0.2
4596.03	2.64	0.2
4597	2.66	0.2
4597.97	2.69	0.2
4598.95	2.72	0.2
4599.19	2.74	0.2
4600.33	2.75	0.2
4601.2	2.77	0.2
4601.48	2.79	0.2
4602.25	2.82	0.2
4603	2.86	0.2
4603.67	2.9	0.2
4605.55	2.92	0.2
4605.73	2.94	0.2
4606.81	2.94	0.2
4607	2.93	0.2
4607.67	2.92	0.2
4608.85	2.92	0.2
4609.01	2.93	0.2
4609.07	2.94	0.2
4610.33	2.96	0.2
4611.04	2.96	0.2
4612.53	2.95	0.2
4612.86	2.93	0.2
4615.58	2.88	0.2
4616.93	2.82	0.2
4619.12	2.77	0.2
4620.13	2.71	0.2
4620.37	2.68	0.2
4621.33	2.66	0.2
4623.63	2.67	0.2
4624.68	2.69	0.2
4625.73	2.71	0.2
4626.5	2.72	0.2
4628.14	2.73	0.2
4629.22	2.74	0.2
4630.13	2.76	0.2
4630.36	2.78	0.2
4631.04	2.79	0.2
4632.65	2.78	0.2
4633.77	2.77	0.2
4634.48	2.74	0.2
4635.44	2.7	0.2
4636.85	2.67	0.2
4637.9	2.63	0.2
4638.46	2.62	0.2
4639.66	2.62	0.2
4641.64	2.64	0.2
4642.01	2.67	0.2
4643.65	2.7	0.2
4644.67	2.72	0.2
4645.91	2.75	0.2
4646.44	2.78	0.2
4647.2	2.82	0.2
4648.33	2.87	0.2
4649.27	2.9	0.2
4649.68	2.92	0.2
4650.62	2.93	0.2
4651.67	2.93	0.2
4652.15	2.94	0.2
4652.63	2.95	0.2
4653.7	2.96	0.2
4654.31	2.96	0.2
4654.63	2.93	0.2
4655	2.88	0.2
4655.99	2.84	0.2
4657.21	2.79	0.2
4658.6	2.78	0.2
4660.16	2.77	0.2
4660.74	2.78	0.2
4661.93	2.77	0.2
4662.6	2.76	0.2
4664.28	2.75	0.2
4664.34	2.72	0.2
4664.6	2.7	0.2
4666.6	2.68	0.2
4667.82	2.67	0.2
4670.82	2.67	0.2
4671.35	2.66	0.2
4673.49	2.65	0.2
4673.8	2.64	0.2
4674.25	2.63	0.2
4674.89	2.63	0.2
4675.27	2.64	0.2
4677.93	2.66	0.2
4678.42	2.7	0.2
4679.71	2.73	0.2
4682.23	2.75	0.2
4682.38	2.76	0.2
4682.75	2.76	0.2
4683.56	2.76	0.2
4684.21	2.76	0.2
4686.8	2.77	0.2
4686.94	2.79	0.2
4687.13	2.82	0.2
4688.76	2.84	0.2
4691.36	2.86	0.2
4691.49	2.87	0.2
4691.5	2.87	0.2
4692.15	2.87	0.2
4695.92	2.85	0.2
4696.05	2.84	0.2
4700.25	2.84	0.2
4700.49	2.83	0.2
4700.6	2.84	0.2
4700.74	2.84	0.2
4701.33	2.84	0.2
4702.42	2.83	0.2
4704.59	2.82	0.2
4704.63	2.8	0.2
4705.08	2.79	0.2
4705.14	2.78	0.2
4705.37	2.77	0.2
4708.62	2.74	0.2
4709.52	2.71	0.2
4709.7	2.67	0.2
4712.65	2.63	0.2
4713.4	2.6	0.2
4713.67	2.59	0.2
4714.13	2.6	0.2
4714.26	2.63	0.2
4716.68	2.67	0.2
4717.79	2.69	0.2
4718.83	2.71	0.2
4720.72	2.71	0.2
4721.97	2.71	0.2
4722.18	2.73	0.2
4723.38	2.75	0.2
4724.75	2.78	0.2
4726.56	2.81	0.2
4728.48	2.82	0.2
4729.12	2.81	0.2
4729.75	2.79	0.2
4730.32	2.77	0.2
4731.17	2.78	0.2
4731.76	2.82	0.2
4733.21	2.87	0.2
4734	2.92	0.2
4735.04	2.94	0.2
4735.25	2.92	0.2
4737.3	2.88	0.2
4738.32	2.83	0.2
4739.34	2.79	0.2
4741.37	2.77	0.2
4741.38	2.76	0.2
4741.59	2.77	0.2
4743.43	2.79	0.2
4744.85	2.81	0.2
4745.05	2.82	0.2
4745.47	2.82	0.2
4747.51	2.81	0.2
4748.12	2.79	0.2
4748.79	2.77	0.2
4749.69	2.75	0.2
4750.88	2.73	0.2
4751.92	2.7	0.2
4752.76	2.66	0.2
4754.15	2.63	0.2
4756.32	2.62	0.2
4756.38	2.62	0.2
4756.73	2.64	0.2
4758.39	2.66	0.2
4758.61	2.68	0.2
4760.52	2.7	0.2
4760.7	2.71	0.2
4762.68	2.73	0.2
4764.67	2.74	0.2
4766.65	2.73	0.2
4768.63	2.73	0.2
4768.99	2.75	0.2
4769.66	2.8	0.2
4769.82	2.85	0.2
4772.6	2.935	0.2
4773.15	3	0.2
4773.33	3.03	0.2
4774.74	3.03	0.2
4775.85	3.02	0.2
4776.22	2.99	0.2
4777.12	2.96	0.2
4779.02	2.94	0.2
4779.29	2.92	0.2
4779.49	2.92	0.2
4780.47	2.91	0.2
4781.17	2.91	0.2
4781.87	2.9	0.2
4782.18	2.88	0.2
4782.36	2.85	0.2
4782.74	2.82	0.2
4784.24	2.81	0.2
4785.15	2.81	0.2
4785.35	2.83	0.2
4785.43	2.85	0.2
4787.66	2.86	0.2
4788.5	2.86	0.2
4788.52	2.86	0.2
4788.99	2.87	0.2
4789.03	2.89	0.2
4791.23	2.91	0.2
4791.37	2.93	0.2
4791.57	2.94	0.2
4791.68	2.93	0.2
4792.17	2.91	0.2
4792.92	2.88	0.2
4794.48	2.85	0.2
4794.69	2.82	0.2
4794.87	2.79	0.2
4796.04	2.77	0.2
4796.98	2.75	0.2
4797.6	2.75	0.2
4797.93	2.76	0.2
4798.06	2.79	0.2
4798.51	2.82	0.2
4799.16	2.86	0.2
4801.18	2.88	0.2
4801.25	2.89	0.2
4801.35	2.9	0.2
4802.3	2.91	0.2
4803.22	2.91	0.2
4803.84	2.9	0.2
4804.43	2.88	0.2
4805.4	2.86	0.2
4806.09	2.87	0.2
4806.96	2.88	0.2
4807.62	2.89	0.2
4807.67	2.88	0.2
4807.99	2.86	0.2
4809.46	2.83	0.2
4809.88	2.8	0.2
4810.08	2.78	0.2
4810.81	2.75	0.2
4810.92	2.74	0.2
4811.64	2.75	0.2
4813.2	2.78	0.2
4813.67	2.83	0.2
4814	2.89	0.2
4814.12	2.94	0.2
4815.68	2.98	0.2
4816.3	2.99	0.2
4816.9	2.98	0.2
4817.16	2.96	0.2
4817.65	2.94	0.2
4817.85	2.94	0.2
4819.69	2.97	0.2
4820.32	3	0.2
4821.63	3.04	0.2
4821.86	3.05	0.2
4822.48	3.03	0.2
4823.47	3	0.2
4824.95	2.95	0.2
4825.26	2.9	0.2
4825.61	2.85	0.2
4826.63	2.8	0.2
4828.04	2.75	0.2
4828.05	2.71	0.2
4828.66	2.68	0.2
4829.59	2.66	0.2
4829.79	2.66	0.2
4830.21	2.68	0.2
4830.83	2.72	0.2
4831.14	2.76	0.2
4832.95	2.8	0.2
4833.3	2.82	0.2
4833.57	2.83	0.2
4833.61	2.84	0.2
4834.84	2.83	0.2
4836.11	2.82	0.2
4836.39	2.81	0.2
4837.55	2.79	0.2
4837.93	2.79	0.2
4839.18	2.8	0.2
4839.26	2.82	0.2
4841.33	2.85	0.2
4841.96	2.88	0.2
4842.42	2.91	0.2
4844.75	2.93	0.2
4845.52	2.96	0.2
4846.19	2.98	0.2
4847.53	3.01	0.2
4847.65	3.03	0.2
4847.68	3.05	0.2
4848.7	3.08	0.2
4848.74	3.1	0.2
4849.05	3.1	0.2
4849.76	3.08	0.2
4850.76	3.04	0.2
4851.68	2.99	0.2
4852.58	2.93	0.2
4853	2.88	0.2
4853.01	2.84	0.2
4854.24	2.83	0.2
4854.41	2.85	0.2
4856.23	2.88	0.2
4856.33	2.89	0.2
4857.76	2.88	0.2
4858.05	2.84	0.2
4858.34	2.79	0.2
4859.65	2.74	0.2
4859.87	2.73	0.2
4861.29	2.73	0.2
4861.61	2.73	0.2
4862.79	2.73	0.2
4862.97	2.73	0.2
4863.32	2.72	0.2
4864.82	2.7	0.2
4865.03	2.69	0.2
4866.3	2.68	0.2
4866.74	2.68	0.2
4867.24	2.69	0.2
4867.77	2.69	0.2
4868.35	2.69	0.2
4869.62	2.68	0.2
4870.17	2.67	0.2
4871.69	2.66	0.2
4871.88	2.66	0.2
4872.94	2.66	0.2
4873.59	2.65	0.2
4875.31	2.64	0.2
4875.41	2.64	0.2
4876.13	2.64	0.2
4876.26	2.65	0.2
4876.34	2.66	0.2
4878.73	2.68	0.2
4878.94	2.7	0.2
4879.58	2.71	0.2
4880.45	2.72	0.2
4880.58	2.74	0.2
4882.16	2.77	0.2
4883.12	2.83	0.2
4883.87	2.89	0.2
4885.58	2.96	0.2
4885.65	3.04	0.2
4886.7	3.11	0.2
4887.3	3.19	0.2
4889.01	3.26	0.2
4889.48	3.31	0.2
4889.53	3.34	0.2
4890.29	3.34	0.2
4890.72	3.33	0.2
4892.44	3.31	0.2
4893.88	3.29	0.2
4894.15	3.27	0.2
4895.86	3.26	0.2
4896.16	3.25	0.2
4896.59	3.24	0.2
4897.46	3.22	0.2
4897.57	3.2	0.2
4899.01	3.18	0.2
4899.52	3.14	0.2
4900.5	3.1	0.2
4901.48	3.04	0.2
4901.54	2.98	0.2
4902.45	2.93	0.2
4903.56	2.89	0.2
4904.67	2.86	0.2
4905.58	2.83	0.2
4905.59	2.8	0.2
4905.89	2.77	0.2
4907.61	2.73	0.2
4908.64	2.7	0.2
4909.63	2.69	0.2
4909.68	2.69	0.2
4912.77	2.7	0.2
4912.87	2.73	0.2
4913	2.75	0.2
4913.67	2.78	0.2
4915.7	2.79	0.2
4916.21	2.79	0.2
4917.17	2.78	0.2
4917.72	2.76	0.2
4917.89	2.75	0.2
4918.93	2.74	0.2
4919.65	2.75	0.2
4921.33	2.76	0.2
4921.76	2.77	0.2
4922.12	2.78	0.2
4923	2.81	0.2
4923.07	2.85	0.2
4924.03	2.89	0.2
4924.75	2.92	0.2
4925.05	2.92	0.2
4925.48	2.9	0.2
4925.74	2.86	0.2
4925.92	2.82	0.2
4927.68	2.8	0.2
4927.97	2.79	0.2
4928.38	2.79	0.2
4929.1	2.8	0.2
4929.43	2.81	0.2
4930.31	2.845	0.2
4930.6	2.89	0.2
4931.48	2.92	0.2
4932.45	2.94	0.2
4933.21	2.95	0.2
4933.52	2.94	0.2
4933.82	2.93	0.2
4935.14	2.92	0.2
4935.28	2.92	0.2
4935.81	2.92	0.2
4936.45	2.93	0.2
4936.74	2.93	0.2
4937.32	2.91	0.2
4938.04	2.88	0.2
4939.16	2.84	0.2
4939.37	2.79	0.2
4939.66	2.74	0.2
4939.97	2.71	0.2
4940.54	2.69	0.2
4942.38	2.69	0.2
4942.51	2.7	0.2
4942.58	2.695	0.2
4944.05	2.67	0.2
4944.79	2.65	0.2
4945.51	2.613333333	0.2
4945.57	2.6	0.2
4946.38	2.6	0.2
4947.21	2.6	0.2
4948.43	2.626666667	0.2
4948.57	2.64	0.2
4949.62	2.64	0.2
4949.89	2.64	0.2
4951.35	2.635	0.2
4952.04	2.61	0.2
4954.28	2.566666667	0.2
4954.45	2.58	0.2
4954.56	2.61	0.2
4956.03	2.64	0.2
4957.2	2.625	0.2
4959.28	2.57	0.2
4959.54	2.54	0.2
4960.12	2.51	0.2
4962.79	2.52	0.2
4962.89	2.54	0.2
4963.05	2.57	0.2
4965.34	2.6	0.2
4965.97	2.61	0.2
4967.89	2.61	0.2
4968.89	2.59	0.2
4970.44	2.58	0.2
4971.81	2.57	0.2
4972.48	2.59	0.2
4974.45	2.61	0.2
4975.54	2.64	0.2
4977.37	2.66	0.2
4978.23	2.65	0.2
4980.58	2.63	0.2
4981.11	2.6	0.2
4983.51	2.56	0.2
4983.98	2.53	0.2
4986.14	2.52	0.2
4986.86	2.52	0.2
4989.06	2.55	0.2
4989.74	2.6	0.2
4991.98	2.66	0.2
4992.62	2.73	0.2
4994.91	2.79	0.2
4997.83	2.83	0.2
4998.09	2.84	0.2
5000.65	2.82	0.2
5000.75	2.78	0.2
5003.21	2.74	0.2
5003.68	2.7	0.2
5005.77	2.67	0.2
5006.6	2.64	0.2
5008.33	2.61	0.2
5009.52	2.6	0.2
5010.89	2.6	0.2
5012.94	2.61	0.2
5015.37	2.62	0.2
5016.01	2.63	0.2
5018.29	2.64	0.2
5018.57	2.67	0.2
5021.13	2.7	0.2
5021.21	2.75	0.2
5023.7	2.8	0.2
5024.14	2.84	0.2
5026.26	2.86	0.2
5027.06	2.87	0.2
5029.13	2.87	0.2
5029.98	2.85	0.2
5030.01	2.83	0.2
5032.08	2.81	0.2
5032.91	2.8	0.2
5032.96	2.8	0.2
5035.03	2.8	0.2
5035.83	2.79	0.2
5035.91	2.78	0.2
5036.12	2.77	0.2
5037.97	2.75	0.2
5038.86	2.74	0.2
5039	2.72	0.2
5039.04	2.7	0.2
5040.92	2.69	0.2
5041.97	2.69	0.2
5044.89	2.71	0.2
5046.82	2.76	0.2
5047.81	2.81	0.2
5049.77	2.87	0.2
5050.74	2.92	0.2
5053.66	2.96	0.2
5055.08	2.97	0.2
5055.96	2.98	0.2
5056.58	2.98	0.2
5058.62	2.96	0.2
5059.51	2.93	0.2
5061.17	2.89	0.2
5062.43	2.85	0.2
5063.38	2.85	0.2
5065.35	2.87	0.2
5068.27	2.89	0.2
5071.2	2.925	0.2
5074.12	2.93	0.2
5077.04	2.92	0.2
5079.97	2.9	0.2
5082.89	2.88	0.2
5085.81	2.85	0.2
5088.74	2.81	0.2
5091.66	2.765	0.2
5094.58	2.75	0.2
5097.51	2.77	0.2
5100.43	2.8	0.2
5103.35	2.82	0.2
5105.69	2.82	0.2
5106.2	2.79	0.2
5108.61	2.74	0.2
5108.99	2.67	0.2
5111.54	2.615	0.2
5114.46	2.6	0.2
5117.38	2.6	0.2
5120.31	2.6	0.2
5123.23	2.61	0.2
5126.15	2.63	0.2
5129.07	2.65	0.2
5132	2.68	0.2
5134.92	2.69	0.2
5137.84	2.69	0.2
5140.77	2.68	0.2
5143.69	2.65	0.2
5146.61	2.63	0.2
5149.54	2.62	0.2
5152.46	2.61	0.2
5155.38	2.61	0.2
5158.31	2.61	0.2
5161.23	2.6	0.2
5164.15	2.59	0.2
5167.07	2.59	0.2
5170	2.575	0.2
5172.92	2.58	0.2
5175.55	2.6	0.2
5178.77	2.64	0.2
5181.69	2.67	0.2
5184.61	2.74	0.2
5187.54	2.81	0.2
5190.46	2.82	0.2
5193.38	2.79	0.2
5196.3	2.74	0.2
5199.23	2.7	0.2
5202.15	2.675	0.2
5205.07	2.68	0.2
5208	2.7	0.2
5210.92	2.71	0.2
5213.84	2.71	0.2
5216.77	2.69	0.2
5219.69	2.675	0.2
5222.61	2.67	0.2
5225.53	2.69	0.2
5228.46	2.73	0.2
5231.38	2.77	0.2
5234.3	2.81	0.2
5237.23	2.83	0.2
5240.15	2.81	0.2
5243.07	2.77	0.2
5246	2.66	0.2
5248.92	2.57	0.2
5251.84	2.54	0.2
5254.77	2.55	0.2
5257.69	2.58	0.2
5260.03	2.64	0.2
5263.62	2.69	0.2
5271.72	2.73	0.2
5274.64	2.74	0.2
5277.57	2.73	0.2
5280.49	2.71	0.2
5283.41	2.7	0.2
5286.33	2.7	0.2
5289.26	2.71	0.2
5292.18	2.73	0.2
5295.1	2.76	0.2
5298.03	2.79	0.2
5300.95	2.81	0.2
5303.87	2.81	0.2
5306.8	2.82	0.2
5309.72	2.82	0.2
5312.64	2.83	0.2
5315.57	2.85	0.2
5318.49	2.85	0.2
5321.41	2.84	0.2
5324.33	2.83	0.2
5327.26	2.84	0.2
5330.18	2.86	0.2
5333.1	2.9	0.2
5336.03	2.94	0.2
5338.95	2.97	0.2
5341.87	2.96	0.2
5344.8	2.94	0.2
5347.72	2.93	0.2
5353.56	2.93	0.2
5356.49	2.93	0.2
5359.41	2.93	0.2
5362.33	2.9	0.2
5365.26	2.84	0.2
5368.18	2.77	0.2
5374.03	2.7	0.2
5376.95	2.67	0.2
5379.87	2.67	0.2
5382.79	2.71	0.2
5385.72	2.75	0.2
5388.64	2.78	0.2
5391.56	2.78	0.2
5394.49	2.77	0.2
5400.33	2.74	0.2
5403.26	2.72	0.2
5406.18	2.7	0.2
5409.1	2.69	0.2
5412.03	2.7	0.2
5414.95	2.71	0.2
5420.79	2.73	0.2
5423.72	2.74	0.2
5429.56	2.75	0.2
5432.49	2.76	0.2
5435.41	2.75	0.2
5438.33	2.75	0.2
5441.26	2.74	0.2
5442.13	2.73	0.2
5444.48	2.73	0.2
5445.06	2.75	0.2
5447.98	2.78	0.2
5450.9	2.82	0.2
5456.75	2.86	0.2
5459.67	2.91	0.2
5465.52	2.95	0.2
5468.44	2.96	0.2
5471.36	2.94	0.2
5474.29	2.88	0.2
5477.21	2.82	0.2
5480.13	2.76	0.2
5483.06	2.73	0.2
5485.98	2.74	0.2
5488.9	2.825	0.2
5491.82	3.136666667	0.2
5494.75	3.34	0.2
5497.67	3.216	0.2
5503.52	2.98	0.2
5506.44	2.92	0.2
5509.36	2.88	0.2
5512.29	2.85	0.2
5515.21	2.83	0.2
5518.13	2.82	0.2
5523.98	2.8	0.2
5529.82	2.77	0.2
5532.75	2.73	0.2
5538.59	2.7	0.2
5541.52	2.69	0.2
5544.44	2.68	0.2
5547.36	2.68	0.2
5553.21	2.68	0.2
5556.13	2.69	0.2
5559.05	2.695	0.2
5561.98	2.7	0.2
5564.9	2.69	0.2
5567.82	2.69	0.2
5570.75	2.7	0.2
5573.67	2.74	0.2
5579.52	2.79	0.2
5582.44	2.82	0.2
5585.36	2.84	0.2
5588.28	2.85	0.2
5590.92	2.85	0.2
5590.99	2.84	0.2
5593.68	2.84	0.2
5593.84	2.83	0.2
5596.76	2.855	0.2
5599.68	2.92	0.2
5602.61	2.95	0.2
5605.53	2.97	0.2
5608.45	2.96	0.2
5611.38	2.95	0.2
5617.22	2.93	0.2
5620.15	2.93	0.2
5625.99	2.93	0.2
5628.92	2.93	0.2
5631.84	2.93	0.2
5634.76	2.92	0.2
5637.68	2.91	0.2
5643.53	2.9	0.2
5646.45	2.89	0.2
5649.38	2.88	0.2
5652.3	2.89	0.2
5655.22	2.9	0.2
5658.15	2.91	0.2
5661.07	2.91	0.2
5663.99	2.91	0.2
5666.91	2.91	0.2
5669.84	2.93	0.2
5672.76	2.97	0.2
5675.68	3	0.2
5678.61	3.03	0.2
5681.53	3.03	0.2
5684.45	3.01	0.2
5687.38	2.99	0.2
5690.3	2.97	0.2
5693.22	2.96	0.2
5696.15	2.95	0.2
5699.07	2.95	0.2
5701.99	2.95	0.2
5704.91	2.94	0.2
5707.84	2.92	0.2
5710.76	2.88	0.2
5713.68	2.85	0.2
5716.61	2.81	0.2
5719.53	2.78	0.2
5722.45	2.75	0.2
5725.38	2.71	0.2
5728.3	2.67	0.2
5731.22	2.63	0.2
5734.14	2.61	0.2
5737.07	2.61	0.2
5739.99	2.62	0.2
5742.91	2.64	0.2
5745.84	2.65	0.2
5748.76	2.68	0.2
5751.68	2.72	0.2
5754.61	2.77	0.2
5757.53	2.83	0.2
5760.45	2.88	0.2
5763.37	2.9	0.2
5766.3	2.9	0.2
5769.22	2.88	0.2
5772.14	2.87	0.2
5775.07	2.86	0.2
5777.99	2.85	0.2
5780.91	2.82	0.2
5783.25	2.78	0.2
5784.12	2.72	0.2
5786.17	2.67	0.2
5787.36	2.63	0.2
5789.1	2.63	0.2
5792.02	2.64	0.2
5794.94	2.66	0.2
5797.87	2.68	0.2
5800.79	2.7	0.2
5803.71	2.72	0.2
5806.64	2.73	0.2
5809.56	2.75	0.2
5812.48	2.76	0.2
5815.41	2.77	0.2
5818.33	2.78	0.2
5821.25	2.77	0.2
5824.17	2.74	0.2
5827.1	2.7	0.2
5830.02	2.68	0.2
5832.94	2.67	0.2
5835.87	2.68	0.2
5838.79	2.71	0.2
5844.64	2.75	0.2
5847.56	2.78	0.2
5850.48	2.8	0.2
5853.4	2.82	0.2
5856.33	2.82	0.2
5859.25	2.81	0.2
5862.17	2.8	0.2
5865.1	2.79	0.2
5868.02	2.805	0.2
5870.94	2.83	0.2
5873.87	2.81	0.2
5876.79	2.77	0.2
5879.71	2.71	0.2
5882.64	2.67	0.2
5885.56	2.65	0.2
5888.48	2.67	0.2
5891.4	2.7	0.2
5894.33	2.73	0.2
5897.25	2.75	0.2
5900.17	2.76	0.2
5903.1	2.76	0.2
5908.94	2.76	0.2
5911.87	2.76	0.2
5914.79	2.74	0.2
5917.71	2.72	0.2
5920.63	2.69	0.2
5923.56	2.66	0.2
5926.48	2.64	0.2
5929.4	2.62	0.2
5932.33	2.62	0.2
5935.25	2.63	0.2
5938.17	2.65	0.2
5941.1	2.67	0.2
5944.02	2.69	0.2
5946.94	2.72	0.2
5948.71	2.74	0.2
5949.96	2.77	0.2
5951.33	2.78	0.2
5954.25	2.78	0.2
5956.75	2.77	0.2
5957.17	2.77	0.2
5960.1	2.78	0.2
5960.14	2.825	0.2
5963.02	2.87	0.2
5963.54	2.89	0.2
5965.94	2.89	0.2
5966.93	2.88	0.2
5968.86	2.88	0.2
5970.32	2.87	0.2
5971.79	2.86	0.2
5973.72	2.86	0.2
5974.71	2.85	0.2
5977.11	2.85	0.2
5977.63	2.87	0.2
5980.51	2.89	0.2
5980.56	2.93	0.2
5983.48	2.96	0.2
5983.9	2.98	0.2
5986.4	2.98	0.2
5989.33	2.945	0.2
5992.25	2.88	0.2
5995.17	2.83	0.2
6001.02	2.8	0.2
6003.94	2.78	0.2
6006.86	2.77	0.2
6009.79	2.76	0.2
6012.71	2.75	0.2
6015.63	2.73	0.2
6018.56	2.72	0.2
6021.48	2.715	0.2
6024.4	2.73	0.2
6027.33	2.74	0.2
6030.25	2.74	0.2
6033.17	2.73	0.2
6036.1	2.71	0.2
6039.02	2.7	0.2
6041.94	2.71	0.2
6044.86	2.72	0.2
6047.79	2.755	0.2
6049.25	2.76	0.2
6050.57	2.725	0.2
6052.17	2.7	0.2
6055.1	2.69	0.2
6058.02	2.69	0.2
6060.94	2.68	0.2
6063.86	2.68	0.2
6066.79	2.67	0.2
6069.71	2.65	0.2
6072.63	2.64	0.2
6078.48	2.64	0.2
6081.4	2.64	0.2
6084.33	2.65	0.2
6087.25	2.66	0.2
6090.17	2.67	0.2
6093.09	2.68	0.2
6096.02	2.69	0.2
6098.94	2.69	0.2
6101.86	2.67	0.2
6104.79	2.65	0.2
6107.71	2.61	0.2
6110.63	2.58	0.2
6113.56	2.54	0.2
6116.48	2.54	0.2
6119.4	2.56	0.2
6122.32	2.6	0.2
6125.25	2.64	0.2
6128.17	2.65	0.2
6134.02	2.66	0.2
6139.86	2.67	0.2
6142.79	2.69	0.2
6148.63	2.7	0.2
6157.4	2.72	0.2
6160.32	2.73	0.2
6163.25	2.75	0.2
6166.17	2.76	0.2
6169.09	2.755	0.2
6172.02	2.72	0.2
6174.94	2.69	0.2
6177.86	2.66	0.2
6180.79	2.65	0.2
6183.71	2.64	0.2
6186.63	2.63	0.2
6189.55	2.62	0.2
6192.48	2.62	0.2
6195.4	2.62	0.2
6198.32	2.6	0.2
6204.17	2.56	0.2
6207.09	2.55	0.2
6210.02	2.55	0.2
6212.94	2.57	0.2
6215.86	2.61	0.2
6218.79	2.65	0.2
6221.71	2.67	0.2
6227.55	2.68	0.2
6233.4	2.67	0.2
6236.32	2.64	0.2
6239.25	2.61	0.2
6242.17	2.59	0.2
6245.09	2.57	0.2
6250.94	2.56	0.2
6253.86	2.54	0.2
6259.71	2.53	0.2
6262.63	2.51	0.2
6265.55	2.52	0.2
6271.4	2.53	0.2
6274.32	2.57	0.2
6277.25	2.6	0.2
6280.17	2.63	0.2
6283.09	2.65	0.2
6286.02	2.65	0.2
6288.76	2.64	0.2
7082.25	2.64	0.2
7085.18	2.63	0.2
7088.1	2.63	0.2
7091.02	2.62	0.2
7093.94	2.63	0.2
7096.87	2.66	0.2
7099.79	2.69	0.2
7102.71	2.72	0.2
7105.64	2.75	0.2
7108.56	2.76	0.2
7111.48	2.76	0.2
7114.41	2.75	0.2
7117.33	2.74	0.2
7120.25	2.74	0.2
7123.18	2.75	0.2
7125.51	2.75	0.2
7129.02	2.74	0.2
7131.94	2.73	0.2
7134.87	2.72	0.2
7137.79	2.71	0.2
7140.71	2.7	0.2
7143.64	2.69	0.2
7152.41	2.68	0.2
7155.33	2.67	0.2
7158.25	2.66	0.2
7161.17	2.64	0.2
7164.1	2.62	0.2
7167.02	2.62	0.2
7169.94	2.63	0.2
7172.87	2.67	0.2
7175.5	2.73	0.2
7178.71	2.78	0.2
7181.64	2.81	0.2
7184.56	2.8	0.2
7187.48	2.77	0.2
7190.41	2.72	0.2
7193.33	2.67	0.2
7196.25	2.64	0.2
7199.17	2.64	0.2
7202.1	2.65	0.2
7205.02	2.67	0.2
7208.82	2.69	0.2
7210.87	2.71	0.2
7213.79	2.73	0.2
7216.71	2.75	0.2
7219.64	2.75	0.2
7222.56	2.75	0.2
7225.48	2.74	0.2
7228.4	2.71	0.2
7231.33	2.7	0.2
7234.25	2.69	0.2
7237.17	2.7	0.2
7240.1	2.72	0.2
7243.02	2.73	0.2
7245.94	2.74	0.2
7248.87	2.75	0.2
7251.79	2.77	0.2
7254.71	2.8	0.2
7257.64	2.82	0.2
7260.56	2.84	0.2
7263.48	2.84	0.2
7266.4	2.84	0.2
7267.97	2.84	0.2
7269.33	2.84	0.2
7271.09	2.84	0.2
7272.25	2.85	0.2
7274.22	2.86	0.2
7275.17	2.86	0.2
7277.34	2.86	0.2
7278.1	2.84	0.2
7280.47	2.81	0.2
7281.02	2.76	0.2
7283.94	2.71	0.2
7286.71	2.67	0.2
7286.87	2.65	0.2
7289.84	2.67	0.2
7292.96	2.7	0.2
7296.08	2.72	0.2
7299.21	2.73	0.2
7302.33	2.71	0.2
7305.46	2.68	0.2
7308.58	2.65	0.2
7311.7	2.63	0.2
7314.83	2.62	0.2
7317.85	2.61	0.2
7320.77	2.6	0.2
7323.7	2.62	0.2
7326.62	2.67	0.2
7329.54	2.71	0.2
7332.47	2.765	0.2
7341.23	2.79	0.2
7344.16	2.78	0.2
7347.08	2.77	0.2
7350	2.74	0.2
7355.85	2.7	0.2
7358.77	2.64	0.2
7361.7	2.6	0.2
7364.62	2.58	0.2
7366.96	2.58	0.2
7370.46	2.58	0.2
7373.39	2.615	0.2
7376.31	2.66	0.2
7379.23	2.7	0.2
7382.16	2.72	0.2
7385.08	2.73	0.2
7388	2.74	0.2
7390.93	2.72	0.2
7396.77	2.685	0.2
7399.7	2.65	0.2
7402.62	2.63	0.2
7405.54	2.61	0.2
7408.46	2.6	0.2
7414.31	2.59	0.2
7417.23	2.6	0.2
7420.16	2.61	0.2
7423.08	2.62	0.2
7881.04	2.62	0.2
7883.21	2.62	0.2
7885.38	2.6	0.2
7887.56	2.58	0.2
7889.73	2.55	0.2
7891.9	2.52	0.2
7894.08	2.5	0.2
7898.42	2.5	0.2
7900.6	2.5	0.2
7902.52	2.5	0.2
7904.44	2.5	0.2
7906.35	2.5	0.2
7908.27	2.52	0.2
7910.18	2.545	0.2
7912.09	2.56	0.2
7914.01	2.54	0.2
7915.92	2.51	0.2
7917.93	2.48	0.2
7920.02	2.45	0.2
7922.42	2.43	0.2
7925.2	2.42	0.2
7927.99	2.42	0.2
7930.77	2.445	0.2
7933.64	2.46	0.2
7936.77	2.46	0.2
7939.9	2.46	0.2
7943.66	2.46	0.2
7946.17	2.47	0.2
7949.3	2.48	0.2
7952.43	2.5	0.2
7955.56	2.5	0.2
7958.7	2.5	0.2
7961.83	2.48	0.2
7964.96	2.45	0.2
7968.09	2.42	0.2
7971.22	2.4	0.2
7974.35	2.4	0.2
7977.49	2.42	0.2
7980.62	2.44	0.2
7983.75	2.46	0.2
7986.88	2.47	0.2
7990.01	2.47	0.2
7996.28	2.48	0.2
7998.72	2.48	0.2
7999.41	2.49	0.2
8001.6	2.51	0.2
8002.54	2.54	0.2
8004.48	2.57	0.2
8005.67	2.59	0.2
8007.35	2.62	0.2
8010.23	2.683333333	0.2
8013.11	2.69	0.2
8015.98	2.64	0.2
8018.86	2.58	0.2
8021.74	2.54	0.2
8024.61	2.51	0.2
8027.49	2.5	0.2
8030.36	2.49	0.2
8033.53	2.48	0.2
8036.12	2.48	0.2
8038.99	2.5	0.2
8041.87	2.53	0.2
8044.75	2.56	0.2
8047.62	2.59	0.2
8050.5	2.58	0.2
8053.38	2.56	0.2
8056.25	2.52	0.2
8059.13	2.5	0.2
8062.01	2.48	0.2
8064.88	2.5	0.2
8067.76	2.53	0.2
8070.64	2.57	0.2
8073.51	2.61	0.2
8076.39	2.63	0.2
8079.26	2.64	0.2
8082.14	2.63	0.2
8085.02	2.59	0.2
8087.89	2.52	0.2
8093.65	2.47	0.2
8096.52	2.42	0.2
8099.4	2.39	0.2
8102.28	2.39	0.2
8105.15	2.4	0.2
8107.73	2.44	0.2
8110.28	2.47	0.2
8116.4	2.48	0.2
8118.18	2.47	0.2
8122.71	2.42	0.2
8124.76	2.36	0.2
8161.02	2.29	0.2
8163.58	2.24	0.2
8168.08	2.22	0.2
8170.18	2.22	0.2
8172.28	2.26	0.2
8174.38	2.31	0.2
8176.48	2.35	0.2
8178.58	2.38	0.2
8180.68	2.38	0.2
8182.78	2.37	0.2
8184.88	2.35	0.2
8187.24	2.32	0.2
8189.67	2.3	0.2
8192.11	2.29	0.2
8194.54	2.3	0.2
8196.98	2.31	0.2
8199.54	2.32	0.2
8202.31	2.33	0.2
8205.09	2.32	0.2
8207.86	2.32	0.2
8210.64	2.32	0.2
8213.42	2.33	0.2
8217.82	2.35	0.2
8225.25	2.37	0.2
8232.68	2.38	0.2
8238.24	2.39	0.2
8391.14	2.4	0.2
8394.04	2.4	0.2
8396.94	2.41	0.2
8399.84	2.41	0.2
8402.73	2.41	0.2
8405.63	2.41	0.2
8408.53	2.39	0.2
8411.43	2.37	0.2
8414.33	2.36	0.2
8417.22	2.35	0.2
8420.12	2.35	0.2
8423.02	2.36	0.2
8425.92	2.37	0.2
8428.82	2.37	0.2
8431.71	2.36	0.2
8434.61	2.34	0.2
8437.51	2.32	0.2
8440.41	2.3	0.2
8443.31	2.29	0.2
8446.2	2.3	0.2
8449.1	2.33	0.2
8452	2.42	0.2
8454.91	2.5	0.2
8457.84	2.52	0.2
8460.76	2.433333333	0.2
8463.68	2.37	0.2
8466.61	2.393333333	0.2
8469.53	2.465	0.2
8472.45	2.51	0.2
8475.38	2.575	0.2
8478.3	2.62	0.2
8481.22	2.61	0.2
8484.15	2.57	0.2
8487.07	2.555	0.2
8489.99	2.58	0.2
8492.91	2.59	0.2
8495.84	2.53	0.2
8498.76	2.44	0.2
8501.68	2.41	0.2
8504.61	2.4	0.2
8507.53	2.42	0.2
8510.45	2.45	0.2
8513.38	2.48	0.2
8516.3	2.49	0.2
8522.14	2.48	0.2
8525.07	2.47	0.2
8527.99	2.45	0.2
8530.91	2.42	0.2
8533.84	2.4	0.2
8536.76	2.37	0.2
8539.68	2.33	0.2
8542.61	2.245	0.2
8545.53	2.14	0.2
8548.45	2.09	0.2
8551.37	2.08	0.2
8561.02	2.11	0.2
8563.94	2.18	0.2
8566.87	2.26	0.2
8569.79	2.32	0.2
8572.71	2.36	0.2
8575.63	2.38	0.2
8578.56	2.38	0.2
8587.33	2.37	0.2
8590.25	2.36	0.2
8593.17	2.35	0.2
8596.1	2.34	0.2
8599.02	2.35	0.2
8601.07	2.35	0.2
8604.28	2.36	0.2
8607.79	2.38	0.2
8610.71	2.41	0.2
8613.64	2.44	0.2
8616.56	2.47	0.2
8619.48	2.48	0.2
8622.4	2.47	0.2
8625.33	2.45	0.2
8628.25	2.43	0.2
8631.17	2.42	0.2
8634.1	2.41	0.2
8637.02	2.4	0.2
8639.94	2.39	0.2
8642.87	2.37	0.2
8645.79	2.34	0.2
8648.71	2.31	0.2
8651.63	2.29	0.2
8654.56	2.28	0.2
8657.48	2.28	0.2
8659.82	2.31	0.2
8662.16	2.34	0.2
8665.67	2.36	0.2
8698.4	2.37	0.2
8701.33	2.35	0.2
8704.25	2.33	0.2
8707.17	2.31	0.2
8710.1	2.31	0.2
8713.02	2.33	0.2
8715.94	2.35	0.2
8718.87	2.325	0.2
8721.79	2.285	0.2
8724.71	2.25	0.2
8727.63	2.215	0.2
8730.56	2.195	0.2
8733.48	2.175	0.2
8736.4	2.15	0.2
8739.33	2.105	0.2
8742.25	2.07	0.2
8745.17	2.05	0.2
8748.1	2.04	0.2
8751.02	2.05	0.2
8753.36	2.07	0.2
8757.45	2.1	0.2
8759.79	2.13	0.2
8762.71	2.16	0.2
8765.63	2.18	0.2
8768.56	2.21	0.2
8827.89	2.25	0.2
8830.82	2.27	0.2
9060.08	2.27	0.2
9069.57	2.28	0.2
9074.96	2.29	0.2
9080.36	2.3	0.2
9085.75	2.32	0.2
9091.15	2.315	0.2
9096.54	2.29	0.2
9107.33	2.28	0.2
9118.11	2.275	0.2